%OpenBCI Raw EEG Data
%
%Sample Rate = 250.0 Hz
%First Column = SampleIndex
%Last Column = Timestamp 
%Other Columns = EEG data in microvolts followed by Accel Data (in G) interleaved with Aux Data
0, 0.00, 0.00, 0.00, 0.00, 0.00, 0.00, 0.00, 0.00, -3312.42, -3269.59, -3368.07, -3259.71, -43648.21, -44641.04, -47838.05, -66288.79, 0.016, 0.958, 0.302, 03:58:27.009
1, -6900.90, -7070.06, -6981.50, -6944.75, -85424.99, -90564.88, -109327.50, -131390.34, -3312.42, -3269.59, -3368.07, -3259.71, -43648.21, -44641.04, -47838.05, -66288.79, 0.000, 0.000, 0.000, 03:58:27.012
2, -6900.90, -7070.06, -6981.50, -6944.75, -85424.99, -90564.88, -109327.50, -131390.34, -6605.70, -6513.57, -6720.70, -6495.10, -87268.90, -89258.76, -95653.20, -132559.34, 0.000, 0.000, 0.000, 03:58:27.016
3, -6885.90, -7068.58, -6978.50, -6950.65, -85405.37, -90569.13, -109328.55, -131404.67, -6605.70, -6513.57, -6720.70, -6495.10, -87268.90, -89258.76, -95653.20, -132559.34, 0.000, 0.000, 0.000, 03:58:27.020
4, -6885.90, -7068.58, -6978.50, -6950.65, -85405.37, -90569.13, -109328.55, -131404.67, -6599.33, -6513.61, -6726.80, -6501.76, -87267.24, -89267.23, -95661.84, -132566.84, 0.000, 0.000, 0.000, 03:58:27.025
5, -6905.53, -7074.95, -6984.67, -6950.95, -85429.73, -90562.27, -109334.16, -131399.86, -6599.33, -6513.61, -6726.80, -6501.76, -87267.24, -89267.23, -95661.84, -132566.84, 0.000, 0.000, 0.000, 03:58:27.028
6, -6905.53, -7074.95, -6984.67, -6950.95, -85429.73, -90562.27, -109334.16, -131399.86, -6612.32, -6519.00, -6727.43, -6500.04, -87275.80, -89264.66, -95659.31, -132565.22, 0.000, 0.000, 0.000, 03:58:27.033
7, -6887.67, -7071.44, -6983.85, -6953.47, -85407.73, -90571.01, -109330.20, -131406.92, -6612.32, -6519.00, -6727.43, -6500.04, -87275.80, -89264.66, -95659.31, -132565.22, 0.008, 0.940, 0.288, 03:58:27.037
8, -6887.67, -7071.44, -6983.85, -6953.47, -85407.73, -90571.01, -109330.20, -131406.92, -6593.67, -6512.74, -6726.47, -6502.93, -87263.73, -89268.41, -95664.05, -132568.17, 0.000, 0.000, 0.000, 03:58:27.040
9, -6897.06, -7070.01, -6982.13, -6949.34, -85421.30, -90566.52, -109331.72, -131400.30, -6593.67, -6512.74, -6726.47, -6502.93, -87263.73, -89268.41, -95664.05, -132568.17, 0.000, 0.000, 0.000, 03:58:27.045
10, -6897.06, -7070.01, -6982.13, -6949.34, -85421.30, -90566.52, -109331.72, -131400.30, -6606.17, -6516.74, -6723.56, -6495.55, -87270.88, -89258.65, -95655.52, -132560.33, 0.000, 0.000, 0.000, 03:58:27.049
11, -6884.09, -7064.29, -6978.82, -6948.15, -85406.48, -90574.00, -109327.67, -131401.30, -6606.17, -6516.74, -6723.56, -6495.55, -87270.88, -89258.65, -95655.52, -132560.33, 0.000, 0.000, 0.000, 03:58:27.052
12, -6884.09, -7064.29, -6978.82, -6948.15, -85406.48, -90574.00, -109327.67, -131401.30, -6590.30, -6510.97, -6723.18, -6499.91, -87260.07, -89264.48, -95660.79, -132564.59, 0.000, 0.000, 0.000, 03:58:27.056
13, -6893.41, -7065.39, -6980.94, -6945.71, -85417.81, -90570.72, -109327.74, -131393.58, -6590.30, -6510.97, -6723.18, -6499.91, -87260.07, -89264.48, -95660.79, -132564.59, 0.000, 0.000, 0.000, 03:58:27.060
14, -6893.41, -7065.39, -6980.94, -6945.71, -85417.81, -90570.72, -109327.74, -131393.58, -6607.60, -6513.99, -6722.64, -6493.56, -87271.53, -89256.41, -95654.29, -132558.17, 0.000, 0.000, 0.000, 03:58:27.064
15, -6888.92, -7066.01, -6978.57, -6947.66, -85412.23, -90569.87, -109327.85, -131399.31, -6607.60, -6513.99, -6722.64, -6493.56, -87271.53, -89256.41, -95654.29, -132558.17, 0.000, 0.000, 0.000, 03:58:27.068
16, -6888.92, -7066.01, -6978.57, -6947.66, -85412.23, -90569.87, -109327.85, -131399.31, -6590.77, -6509.21, -6724.52, -6499.84, -87261.77, -89267.08, -95661.73, -132565.02, 0.000, 0.000, 0.000, 03:58:27.072
17, -6893.61, -7068.11, -6984.96, -6948.26, -85420.36, -90565.24, -109330.07, -131397.52, -6590.77, -6509.21, -6724.52, -6499.84, -87261.77, -89267.08, -95661.73, -132565.02, 0.012, 0.936, 0.310, 03:58:27.078
18, -6893.61, -7068.11, -6984.96, -6948.26, -85420.36, -90565.24, -109330.07, -131397.52, -6613.61, -6514.71, -6726.20, -6495.80, -87276.65, -89260.50, -95657.62, -132561.20, 0.000, 0.000, 0.000, 03:58:27.080
19, -6895.60, -7069.74, -6982.64, -6948.96, -85420.61, -90566.31, -109328.95, -131397.59, -6613.61, -6514.71, -6726.20, -6495.80, -87276.65, -89260.50, -95657.62, -132561.20, 0.000, 0.000, 0.000, 03:58:27.084
20, -6895.60, -7069.74, -6982.64, -6948.96, -85420.61, -90566.31, -109328.95, -131397.59, -6594.97, -6512.14, -6727.63, -6501.70, -87266.04, -89269.45, -95664.44, -132567.09, 0.000, 0.000, 0.000, 03:58:27.088
21, -6896.50, -7072.18, -6988.50, -6952.35, -85423.16, -90570.02, -109333.02, -131400.89, -6594.97, -6512.14, -6727.63, -6501.70, -87266.04, -89269.45, -95664.44, -132567.09, 0.000, 0.000, 0.000, 03:58:27.092
22, -6896.50, -7072.18, -6988.50, -6952.35, -85423.16, -90570.02, -109333.02, -131400.89, -6615.74, -6519.80, -6727.81, -6497.34, -87279.80, -89261.13, -95658.96, -132562.36, 0.000, 0.000, 0.000, 03:58:27.097
23, -6897.97, -7068.40, -6984.99, -6948.20, -85427.85, -90569.66, -109330.52, -131395.91, -6615.74, -6519.80, -6727.81, -6497.34, -87279.80, -89261.13, -95658.96, -132562.36, 0.000, 0.000, 0.000, 03:58:27.100
24, -6897.97, -7068.40, -6984.99, -6948.20, -85427.85, -90569.66, -109330.52, -131395.91, -6596.60, -6514.57, -6724.50, -6499.08, -87265.19, -89265.22, -95660.19, -132563.77, 0.000, 0.000, 0.000, 03:58:27.104
25, -6891.40, -7064.25, -6979.82, -6946.45, -85416.85, -90570.12, -109327.30, -131395.17, -6596.60, -6514.57, -6724.50, -6499.08, -87265.19, -89265.22, -95660.19, -132563.77, 0.000, 0.000, 0.000, 03:58:27.108
26, -6891.40, -7064.25, -6979.82, -6946.45, -85416.85, -90570.12, -109327.30, -131395.17, -6612.32, -6517.95, -6722.82, -6491.48, -87275.45, -89254.80, -95653.33, -132556.50, 0.010, 0.934, 0.292, 03:58:27.112
27, -6899.65, -7066.35, -6981.99, -6944.78, -85430.24, -90565.27, -109328.01, -131392.27, -6612.32, -6517.95, -6722.82, -6491.48, -87275.45, -89254.80, -95653.33, -132556.50, 0.000, 0.000, 0.000, 03:58:27.116
28, -6899.65, -7066.35, -6981.99, -6944.78, -85430.24, -90565.27, -109328.01, -131392.27, -6595.33, -6513.03, -6720.79, -6494.39, -87263.82, -89262.31, -95655.85, -132560.09, 0.000, 0.000, 0.000, 03:58:27.120
29, -6886.28, -7060.11, -6978.59, -6944.08, -85414.33, -90564.70, -109325.04, -131395.91, -6595.33, -6513.03, -6720.79, -6494.39, -87263.82, -89262.31, -95655.85, -132560.09, 0.000, 0.000, 0.000, 03:58:27.124
30, -6886.28, -7060.11, -6978.59, -6944.08, -85414.33, -90564.70, -109325.04, -131395.91, -6609.84, -6513.32, -6720.12, -6488.13, -87273.08, -89254.27, -95650.84, -132554.22, 0.000, 0.000, 0.000, 03:58:27.128
31, -6900.52, -7063.35, -6977.66, -6941.04, -85431.34, -90559.74, -109324.97, -131388.84, -6609.84, -6513.32, -6720.12, -6488.13, -87273.08, -89254.27, -95650.84, -132554.22, 0.000, 0.000, 0.000, 03:58:27.133
32, -6900.52, -7063.35, -6977.66, -6941.04, -85431.34, -90559.74, -109324.97, -131388.84, -6597.47, -6508.87, -6719.69, -6491.62, -87264.72, -89261.71, -95653.68, -132557.89, 0.000, 0.000, 0.000, 03:58:27.135
33, -6885.95, -7060.65, -6977.68, -6944.24, -85413.81, -90566.96, -109324.19, -131395.94, -6597.47, -6508.87, -6719.69, -6491.62, -87264.72, -89261.71, -95653.68, -132557.89, 0.000, 0.000, 0.000, 03:58:27.140
34, -6885.95, -7060.65, -6977.68, -6944.24, -85413.81, -90566.96, -109324.19, -131395.94, -6611.00, -6512.99, -6722.73, -6490.95, -87275.29, -89259.56, -95653.80, -132557.50, 0.000, 0.000, 0.000, 03:58:27.144
35, -6905.95, -7067.46, -6984.05, -6945.31, -85440.08, -90565.96, -109329.84, -131391.16, -6611.00, -6512.99, -6722.73, -6490.95, -87275.29, -89259.56, -95653.80, -132557.50, 0.000, 0.000, 0.000, 03:58:27.148
36, -6905.95, -7067.46, -6984.05, -6945.31, -85440.08, -90565.96, -109329.84, -131391.16, -6602.91, -6511.71, -6722.18, -6493.87, -87269.86, -89264.93, -95655.34, -132560.14, 0.018, 0.934, 0.300, 03:58:27.153
37, -6888.34, -7061.90, -6979.53, -6947.23, -85415.58, -90571.91, -109326.70, -131398.14, -6602.91, -6511.71, -6722.18, -6493.87, -87269.86, -89264.93, -95655.34, -132560.14, 0.000, 0.000, 0.000, 03:58:27.156
38, -6888.34, -7061.90, -6979.53, -6947.23, -85415.58, -90571.91, -109326.70, -131398.14, -6611.67, -6513.66, -6724.10, -6492.91, -87275.83, -89262.29, -95655.59, -132559.31, 0.000, 0.000, 0.000, 03:58:27.160
39, -6906.89, -7065.81, -6981.54, -6943.50, -85441.38, -90563.63, -109328.46, -131389.42, -6611.67, -6513.66, -6724.10, -6492.91, -87275.83, -89262.29, -95655.59, -132559.31, 0.000, 0.000, 0.000, 03:58:27.163
40, -6906.89, -7065.81, -6981.54, -6943.50, -85441.38, -90563.63, -109328.46, -131389.42, -6603.04, -6511.17, -6719.18, -6489.61, -87269.37, -89261.35, -95650.94, -132556.45, 0.000, 0.000, 0.000, 03:58:27.168
41, -6884.85, -7059.11, -6977.92, -6945.27, -85415.53, -90569.02, -109324.59, -131398.13, -6603.04, -6511.17, -6719.18, -6489.61, -87269.37, -89261.35, -95650.94, -132556.45, 0.000, 0.000, 0.000, 03:58:27.172
42, -6884.85, -7059.11, -6977.92, -6945.27, -85415.53, -90569.02, -109324.59, -131398.13, -6606.37, -6512.78, -6720.88, -6489.85, -87272.16, -89260.66, -95652.74, -132557.08, 0.000, 0.000, 0.000, 03:58:27.177
43, -6905.03, -7064.22, -6982.71, -6942.92, -85442.34, -90563.99, -109327.67, -131388.63, -6606.37, -6512.78, -6720.88, -6489.85, -87272.16, -89260.66, -95652.74, -132557.08, 0.000, 0.000, 0.000, 03:58:27.180
44, -6905.03, -7064.22, -6982.71, -6942.92, -85442.34, -90563.99, -109327.67, -131388.63, -6609.61, -6516.02, -6721.46, -6490.70, -87274.48, -89262.65, -95651.90, -132558.02, 0.000, 0.000, 0.000, 03:58:27.184
45, -6888.14, -7060.87, -6979.06, -6947.06, -85419.87, -90575.21, -109326.31, -131399.98, -6609.61, -6516.02, -6721.46, -6490.70, -87274.48, -89262.65, -95651.90, -132558.02, 0.000, 0.000, 0.000, 03:58:27.189
46, -6888.14, -7060.87, -6979.06, -6947.06, -85419.87, -90575.21, -109326.31, -131399.98, -6605.45, -6514.01, -6721.46, -6490.48, -87272.05, -89262.60, -95652.92, -132558.00, 0.026, 0.946, 0.308, 03:58:27.191
47, -6905.24, -7063.20, -6981.32, -6942.03, -85444.01, -90566.29, -109327.14, -131388.80, -6605.45, -6514.01, -6721.46, -6490.48, -87272.05, -89262.60, -95652.92, -132558.00, 0.000, 0.000, 0.000, 03:58:27.195
48, -6905.24, -7063.20, -6981.32, -6942.03, -85444.01, -90566.29, -109327.14, -131388.80, -6610.84, -6516.34, -6719.49, -6487.91, -87275.76, -89260.84, -95648.72, -132555.36, 0.000, 0.000, 0.000, 03:58:27.201
49, -6887.56, -7059.22, -6979.51, -6945.42, -85421.75, -90573.91, -109324.77, -131397.30, -6610.84, -6516.34, -6719.49, -6487.91, -87275.76, -89260.84, -95648.72, -132555.36, 0.000, 0.000, 0.000, 03:58:27.204
50, -6887.56, -7059.22, -6979.51, -6945.42, -85421.75, -90573.91, -109324.77, -131397.30, -6604.87, -6513.59, -6720.66, -6490.10, -87271.34, -89264.08, -95652.30, -132557.95, 0.000, 0.000, 0.000, 03:58:27.208
51, -6907.29, -7064.11, -6981.75, -6943.23, -85446.80, -90566.67, -109328.13, -131389.42, -6604.87, -6513.59, -6720.66, -6490.10, -87271.34, -89264.08, -95652.30, -132557.95, 0.000, 0.000, 0.000, 03:58:27.212
52, -6907.29, -7064.11, -6981.75, -6943.23, -85446.80, -90566.67, -109328.13, -131389.42, -6614.82, -6517.01, -6719.65, -6486.12, -87278.55, -89259.97, -95646.84, -132554.13, 0.000, 0.000, 0.000, 03:58:27.215
53, -6890.26, -7058.43, -6976.63, -6943.48, -85426.09, -90570.83, -109323.45, -131394.55, -6614.82, -6517.01, -6719.65, -6486.12, -87278.55, -89259.97, -95646.84, -132554.13, 0.000, 0.000, 0.000, 03:58:27.220
54, -6890.26, -7058.43, -6976.63, -6943.48, -85426.09, -90570.83, -109323.45, -131394.55, -6603.00, -6511.93, -6718.80, -6487.82, -87270.08, -89263.50, -95649.82, -132556.19, 0.000, 0.000, 0.000, 03:58:27.224
55, -6903.00, -7059.35, -6979.91, -6939.48, -85444.93, -90563.52, -109324.19, -131384.33, -6603.00, -6511.93, -6718.80, -6487.82, -87270.08, -89263.50, -95649.82, -132556.19, 0.000, 0.000, 0.000, 03:58:27.228
56, -6903.00, -7059.35, -6979.91, -6939.48, -85444.93, -90563.52, -109324.19, -131384.33, -6614.48, -6511.89, -6713.41, -6478.56, -87276.18, -89253.24, -95638.87, -132546.59, 0.024, 0.946, 0.294, 03:58:27.232
57, -6888.94, -7052.71, -6970.79, -6936.24, -85427.88, -90565.06, -109317.53, -131386.09, -6614.48, -6511.89, -6713.41, -6478.56, -87276.18, -89253.24, -95638.87, -132546.59, 0.000, 0.000, 0.000, 03:58:27.237
58, -6888.94, -7052.71, -6970.79, -6936.24, -85427.88, -90565.06, -109317.53, -131386.09, -6599.73, -6506.17, -6712.97, -6481.31, -87266.20, -89258.41, -95642.51, -132549.44, 0.000, 0.000, 0.000, 03:58:27.239
59, -6901.41, -7055.82, -6974.35, -6935.25, -85444.59, -90561.09, -109320.52, -131381.16, -6599.73, -6506.17, -6712.97, -6481.31, -87266.20, -89258.41, -95642.51, -132549.44, 0.000, 0.000, 0.000, 03:58:27.244
60, -6901.41, -7055.82, -6974.35, -6935.25, -85444.59, -90561.09, -109320.52, -131381.16, -6619.07, -6511.93, -6712.54, -6476.10, -87278.87, -89251.49, -95636.00, -132544.36, 0.000, 0.000, 0.000, 03:58:27.247
61, -6894.84, -7054.23, -6972.45, -6936.01, -85437.48, -90563.92, -109318.65, -131384.73, -6619.07, -6511.93, -6712.54, -6476.10, -87278.87, -89251.49, -95636.00, -132544.36, 0.000, 0.000, 0.000, 03:58:27.251
62, -6894.84, -7054.23, -6972.45, -6936.01, -85437.48, -90563.92, -109318.65, -131384.73, -6603.06, -6508.96, -6712.94, -6480.93, -87269.59, -89259.48, -95641.10, -132549.22, 0.000, 0.000, 0.000, 03:58:27.256
63, -6903.58, -7056.33, -6975.20, -6935.05, -85449.27, -90561.09, -109320.68, -131381.27, -6603.06, -6508.96, -6712.94, -6480.93, -87269.59, -89259.48, -95641.10, -132549.22, 0.000, 0.000, 0.000, 03:58:27.261
64, -6903.58, -7056.33, -6975.20, -6935.05, -85449.27, -90561.09, -109320.68, -131381.27, -6624.41, -6514.68, -6711.20, -6473.44, -87283.13, -89249.80, -95632.27, -132541.61, 0.000, 0.000, 0.000, 03:58:27.264
65, -6903.81, -7055.55, -6972.58, -6933.91, -85450.54, -90562.27, -109318.55, -131379.81, -6624.41, -6514.68, -6711.20, -6473.44, -87283.13, -89249.80, -95632.27, -132541.61, 0.000, 0.000, 0.000, 03:58:27.268
66, -6903.81, -7055.55, -6972.58, -6933.91, -85450.54, -90562.27, -109318.55, -131379.81, -6610.53, -6511.71, -6711.27, -6477.92, -87273.95, -89257.64, -95636.20, -132546.08, 0.014, 0.938, 0.288, 03:58:27.271
67, -6910.67, -7058.12, -6975.80, -6935.10, -85459.10, -90561.48, -109321.20, -131378.05, -6610.53, -6511.71, -6711.27, -6477.92, -87273.95, -89257.64, -95636.20, -132546.08, 0.000, 0.000, 0.000, 03:58:27.275
68, -6910.67, -7058.12, -6975.80, -6935.10, -85459.10, -90561.48, -109321.20, -131378.05, -6636.72, -6521.23, -6712.63, -6472.86, -87292.34, -89250.20, -95629.92, -132540.61, 0.000, 0.000, 0.000, 03:58:27.280
69, -6917.10, -7059.44, -6974.97, -6932.71, -85469.65, -90558.16, -109320.05, -131374.03, -6636.72, -6521.23, -6712.63, -6472.86, -87292.34, -89250.20, -95629.92, -132540.61, 0.000, 0.000, 0.000, 03:58:27.285
70, -6917.10, -7059.44, -6974.97, -6932.71, -85469.65, -90558.16, -109320.05, -131374.03, -6622.75, -6518.62, -6711.69, -6476.08, -87283.13, -89256.70, -95632.45, -132543.84, 0.000, 0.000, 0.000, 03:58:27.289
71, -6920.59, -7062.15, -6979.11, -6935.99, -85474.01, -90560.52, -109323.90, -131376.06, -6622.75, -6518.62, -6711.69, -6476.08, -87283.13, -89256.70, -95632.45, -132543.84, 0.000, 0.000, 0.000, 03:58:27.293
72, -6920.59, -7062.15, -6979.11, -6935.99, -85474.01, -90560.52, -109323.90, -131376.06, -6649.84, -6529.01, -6714.78, -6472.48, -87302.65, -89249.48, -95628.07, -132539.84, 0.000, 0.000, 0.000, 03:58:27.295
73, -6934.29, -7065.23, -6979.98, -6933.53, -85493.20, -90557.27, -109324.34, -131369.27, -6649.84, -6529.01, -6714.78, -6472.48, -87302.65, -89249.48, -95628.07, -132539.84, 0.000, 0.000, 0.000, 03:58:27.300
74, -6934.29, -7065.23, -6979.98, -6933.53, -85493.20, -90557.27, -109324.34, -131369.27, -6637.95, -6527.04, -6712.83, -6474.52, -87294.94, -89254.42, -95628.47, -132541.08, 0.000, 0.000, 0.000, 03:58:27.304
75, -6929.78, -7062.66, -6979.60, -6932.97, -85488.73, -90558.63, -109323.34, -131368.69, -6637.95, -6527.04, -6712.83, -6474.52, -87294.94, -89254.42, -95628.47, -132541.08, 0.000, 0.000, 0.000, 03:58:27.307
76, -6929.78, -7062.66, -6979.60, -6932.97, -85488.73, -90558.63, -109323.34, -131368.69, -6659.08, -6530.87, -6711.71, -6466.85, -87308.44, -89243.67, -95620.45, -132533.08, 0.024, 0.950, 0.306, 03:58:27.312
77, -6945.71, -7064.65, -6979.00, -6927.88, -85511.05, -90551.09, -109322.47, -131357.27, -6659.08, -6530.87, -6711.71, -6466.85, -87308.44, -89243.67, -95620.45, -132533.08, 0.000, 0.000, 0.000, 03:58:27.317
78, -6945.71, -7064.65, -6979.00, -6927.88, -85511.05, -90551.09, -109322.47, -131357.27, -6650.85, -6529.15, -6711.74, -6470.07, -87303.52, -89249.88, -95622.05, -132535.83, 0.000, 0.000, 0.000, 03:58:27.319
79, -6941.65, -7067.02, -6981.79, -6933.27, -85504.70, -90556.84, -109325.30, -131364.69, -6650.85, -6529.15, -6711.74, -6470.07, -87303.52, -89249.88, -95622.05, -132535.83, 0.000, 0.000, 0.000, 03:58:27.324
80, -6941.65, -7067.02, -6981.79, -6933.27, -85504.70, -90556.84, -109325.30, -131364.69, -6673.22, -6536.19, -6715.74, -6468.82, -87319.41, -89246.16, -95620.80, -132533.92, 0.000, 0.000, 0.000, 03:58:27.327
81, -6960.80, -7071.00, -6983.11, -6928.82, -85531.45, -90546.40, -109326.16, -131353.86, -6673.22, -6536.19, -6715.74, -6468.82, -87319.41, -89246.16, -95620.80, -132533.92, 0.000, 0.000, 0.000, 03:58:27.332
82, -6960.80, -7071.00, -6983.11, -6928.82, -85531.45, -90546.40, -109326.16, -131353.86, -6663.41, -6532.34, -6711.98, -6467.48, -87312.17, -89247.23, -95617.97, -132532.20, 0.000, 0.000, 0.000, 03:58:27.337
83, -6945.56, -7066.41, -6980.47, -6930.09, -85513.28, -90548.81, -109323.45, -131359.31, -6663.41, -6532.34, -6711.98, -6467.48, -87312.17, -89247.23, -95617.97, -132532.20, 0.000, 0.000, 0.000, 03:58:27.339
84, -6945.56, -7066.41, -6980.47, -6930.09, -85513.28, -90548.81, -109323.45, -131359.31, -6674.43, -6534.91, -6713.08, -6464.39, -87320.66, -89241.28, -95615.71, -132528.97, 0.000, 0.000, 0.000, 03:58:27.345
85, -6968.65, -7072.72, -6984.88, -6927.59, -85544.28, -90543.41, -109326.80, -131349.06, -6674.43, -6534.91, -6713.08, -6464.39, -87320.66, -89241.28, -95615.71, -132528.97, 0.024, 0.948, 0.306, 03:58:27.347
86, -6968.65, -7072.72, -6984.88, -6927.59, -85544.28, -90543.41, -109326.80, -131349.06, -6674.68, -6538.22, -6714.31, -6467.41, -87320.98, -89245.46, -95616.65, -132531.31, 0.000, 0.000, 0.000, 03:58:27.351
87, -6953.54, -7068.90, -6983.09, -6931.50, -85524.97, -90552.81, -109326.38, -131357.39, -6674.68, -6538.22, -6714.31, -6467.41, -87320.98, -89245.46, -95616.65, -132531.31, 0.000, 0.000, 0.000, 03:58:27.356
88, -6953.54, -7068.90, -6983.09, -6931.50, -85524.97, -90552.81, -109326.38, -131357.39, -6681.09, -6540.75, -6716.92, -6467.48, -87327.01, -89243.20, -95617.92, -132531.05, 0.000, 0.000, 0.000, 03:58:27.359
89, -6975.08, -7073.90, -6987.71, -6928.35, -85554.14, -90545.23, -109329.20, -131345.86, -6681.09, -6540.75, -6716.92, -6467.48, -87327.01, -89243.20, -95617.92, -132531.05, 0.000, 0.000, 0.000, 03:58:27.364
90, -6975.08, -7073.90, -6987.71, -6928.35, -85554.14, -90545.23, -109329.20, -131345.86, -6681.81, -6541.17, -6715.87, -6466.99, -87327.41, -89243.25, -95615.93, -132530.13, 0.000, 0.000, 0.000, 03:58:27.367
91, -6959.10, -7071.62, -6986.15, -6932.04, -85533.33, -90551.63, -109327.63, -131354.41, -6681.81, -6541.17, -6715.87, -6466.99, -87327.41, -89243.25, -95615.93, -132530.13, 0.000, 0.000, 0.000, 03:58:27.372
92, -6959.10, -7071.62, -6986.15, -6932.04, -85533.33, -90551.63, -109327.63, -131354.41, -6681.90, -6539.05, -6717.30, -6466.81, -87327.91, -89242.00, -95617.41, -132529.67, 0.000, 0.000, 0.000, 03:58:27.374
93, -6976.72, -7073.37, -6986.75, -6925.49, -85558.36, -90537.03, -109327.30, -131340.98, -6681.90, -6539.05, -6717.30, -6466.81, -87327.91, -89242.00, -95617.41, -132529.67, 0.000, 0.000, 0.000, 03:58:27.379
94, -6976.72, -7073.37, -6986.75, -6925.49, -85558.36, -90537.03, -109327.30, -131340.98, -6683.28, -6537.28, -6713.28, -6461.98, -87328.58, -89237.33, -95611.39, -132524.67, 0.000, 0.000, 0.000, 03:58:27.384
95, -6956.85, -7067.38, -6983.24, -6927.30, -85534.71, -90541.41, -109323.65, -131348.50, -6683.28, -6537.28, -6713.28, -6461.98, -87328.58, -89237.33, -95611.39, -132524.67, 0.016, 0.948, 0.290, 03:58:27.387
96, -6956.85, -7067.38, -6983.24, -6927.30, -85534.71, -90541.41, -109323.65, -131348.50, -6677.70, -6535.20, -6714.69, -6463.95, -87325.29, -89238.66, -95615.04, -132526.44, 0.000, 0.000, 0.000, 03:58:27.392
97, -6975.58, -7072.25, -6987.96, -6924.46, -85560.98, -90535.20, -109326.49, -131337.86, -6677.70, -6535.20, -6714.69, -6463.95, -87325.29, -89238.66, -95615.04, -132526.44, 0.000, 0.000, 0.000, 03:58:27.395
98, -6975.58, -7072.25, -6987.96, -6924.46, -85560.98, -90535.20, -109326.49, -131337.86, -6686.61, -6539.45, -6714.15, -6461.62, -87332.24, -89234.82, -95611.13, -132523.25, 0.000, 0.000, 0.000, 03:58:27.400
99, -6958.28, -7067.31, -6984.61, -6926.72, -85540.30, -90544.39, -109323.83, -131344.61, -6686.61, -6539.45, -6714.15, -6461.62, -87332.24, -89234.82, -95611.13, -132523.25, 0.000, 0.000, 0.000, 03:58:27.403
100, -6958.28, -7067.31, -6984.61, -6926.72, -85540.30, -90544.39, -109323.83, -131344.61, -6674.52, -6534.78, -6714.49, -6464.28, -87324.71, -89237.39, -95615.08, -132525.61, 0.000, 0.000, 0.000, 03:58:27.406
101, -6973.65, -7069.95, -6988.23, -6924.37, -85561.23, -90539.02, -109326.63, -131335.47, -6674.52, -6534.78, -6714.49, -6464.28, -87324.71, -89237.39, -95615.08, -132525.61, 0.000, 0.000, 0.000, 03:58:27.412
102, -6973.65, -7069.95, -6988.23, -6924.37, -85561.23, -90539.02, -109326.63, -131335.47, -6689.94, -6539.56, -6715.45, -6462.16, -87335.05, -89233.68, -95611.38, -132522.92, 0.000, 0.000, 0.000, 03:58:27.415
103, -6962.12, -7069.14, -6985.68, -6927.27, -85546.45, -90544.59, -109325.17, -131342.64, -6689.94, -6539.56, -6715.45, -6462.16, -87335.05, -89233.68, -95611.38, -132522.92, 0.000, 0.000, 0.000, 03:58:27.419
104, -6962.12, -7069.14, -6985.68, -6927.27, -85546.45, -90544.59, -109325.17, -131342.64, -6673.31, -6532.70, -6715.27, -6465.22, -87324.64, -89238.95, -95615.95, -132525.97, 0.000, 0.000, 0.000, 03:58:27.424
105, -6970.86, -7069.66, -6987.00, -6923.90, -85559.44, -90534.89, -109325.35, -131334.84, -6673.31, -6532.70, -6715.27, -6465.22, -87324.64, -89238.95, -95615.95, -132525.97, 0.022, 0.958, 0.304, 03:58:27.427
106, -6970.86, -7069.66, -6987.00, -6923.90, -85559.44, -90534.89, -109325.35, -131334.84, -6688.89, -6535.96, -6715.49, -6461.04, -87335.23, -89232.92, -95611.28, -132521.81, 0.000, 0.000, 0.000, 03:58:27.431
107, -6961.38, -7068.43, -6985.64, -6927.05, -85548.41, -90540.03, -109324.93, -131342.00, -6688.89, -6535.96, -6715.49, -6461.04, -87335.23, -89232.92, -95611.28, -132521.81, 0.000, 0.000, 0.000, 03:58:27.435
108, -6961.38, -7068.43, -6985.64, -6927.05, -85548.41, -90540.03, -109324.93, -131342.00, -6671.17, -6530.73, -6717.15, -6467.19, -87324.13, -89240.99, -95618.55, -132527.63, 0.000, 0.000, 0.000, 03:58:27.439
109, -6967.11, -7069.95, -6988.59, -6926.00, -85557.02, -90537.59, -109326.13, -131337.92, -6671.17, -6530.73, -6717.15, -6467.19, -87324.13, -89240.99, -95618.55, -132527.63, 0.000, 0.000, 0.000, 03:58:27.445
110, -6967.11, -7069.95, -6988.59, -6926.00, -85557.02, -90537.59, -109326.13, -131337.92, -6687.31, -6534.82, -6716.39, -6462.02, -87335.46, -89232.52, -95612.35, -132522.02, 0.000, 0.000, 0.000, 03:58:27.449
111, -6962.01, -7069.32, -6988.16, -6927.61, -85552.28, -90542.98, -109325.51, -131340.92, -6687.31, -6534.82, -6716.39, -6462.02, -87335.46, -89232.52, -95612.35, -132522.02, 0.000, 0.000, 0.000, 03:58:27.451
112, -6962.01, -7069.32, -6988.16, -6927.61, -85552.28, -90542.98, -109325.51, -131340.92, -6671.28, -6532.52, -6720.12, -6471.25, -87325.96, -89243.77, -95621.72, -132530.78, 0.000, 0.000, 0.000, 03:58:27.455
113, -6967.26, -7072.70, -6991.94, -6931.23, -85558.05, -90544.81, -109330.11, -131343.30, -6671.28, -6532.52, -6720.12, -6471.25, -87325.96, -89243.77, -95621.72, -132530.78, 0.000, 0.000, 0.000, 03:58:27.458
114, -6967.26, -7072.70, -6991.94, -6931.23, -85558.05, -90544.81, -109330.11, -131343.30, -6689.83, -6538.04, -6720.36, -6465.87, -87338.86, -89235.45, -95615.80, -132525.05, 0.000, 0.000, 0.000, 03:58:27.463
115, -6965.63, -7071.29, -6988.12, -6928.59, -85557.60, -90541.33, -109326.60, -131341.23, -6689.83, -6538.04, -6720.36, -6465.87, -87338.86, -89235.45, -95615.80, -132525.05, 0.022, 0.952, 0.302, 03:58:27.469
116, -6965.63, -7071.29, -6988.12, -6928.59, -85557.60, -90541.33, -109326.60, -131341.23, -6670.07, -6533.10, -6719.94, -6470.90, -87325.80, -89243.77, -95620.98, -132530.19, 0.000, 0.000, 0.000, 03:58:27.472
117, -6962.52, -7071.22, -6990.02, -6930.49, -85554.27, -90541.08, -109327.77, -131344.08, -6670.07, -6533.10, -6719.94, -6470.90, -87325.80, -89243.77, -95620.98, -132530.19, 0.000, 0.000, 0.000, 03:58:27.476
118, -6962.52, -7071.22, -6990.02, -6930.49, -85554.27, -90541.08, -109327.77, -131344.08, -6688.45, -6538.49, -6720.61, -6466.09, -87338.41, -89236.03, -95616.13, -132525.52, 0.000, 0.000, 0.000, 03:58:27.479
119, -6967.19, -7072.27, -6988.92, -6929.24, -85561.89, -90539.31, -109327.36, -131342.17, -6688.45, -6538.49, -6720.61, -6466.09, -87338.41, -89236.03, -95616.13, -132525.52, 0.000, 0.000, 0.000, 03:58:27.482
120, -6967.19, -7072.27, -6988.92, -6929.24, -85561.89, -90539.31, -109327.36, -131342.17, -6668.67, -6533.15, -6718.73, -6469.80, -87325.45, -89243.20, -95619.02, -132529.03, 0.000, 0.000, 0.000, 03:58:27.487
121, -6957.90, -7069.63, -6988.63, -6930.54, -85551.23, -90542.66, -109326.20, -131346.13, -6668.67, -6533.15, -6718.73, -6469.80, -87325.45, -89243.20, -95619.02, -132529.03, 0.000, 0.000, 0.000, 03:58:27.491
122, -6957.90, -7069.63, -6988.63, -6930.54, -85551.23, -90542.66, -109326.20, -131346.13, -6684.36, -6536.72, -6718.87, -6465.35, -87336.53, -89235.67, -95614.37, -132524.20, 0.000, 0.000, 0.000, 03:58:27.496
123, -6966.55, -7070.53, -6987.96, -6927.39, -85564.45, -90539.65, -109325.51, -131339.20, -6684.36, -6536.72, -6718.87, -6465.35, -87336.53, -89235.67, -95614.37, -132524.20, 0.000, 0.000, 0.000, 03:58:27.500
124, -6966.55, -7070.53, -6987.96, -6927.39, -85564.45, -90539.65, -109325.51, -131339.20, -6667.23, -6530.87, -6716.19, -6467.66, -87324.30, -89240.81, -95615.59, -132526.19, 0.000, 0.000, 0.000, 03:58:27.504
125, -6951.46, -7064.54, -6983.78, -6926.96, -85546.43, -90541.84, -109321.73, -131342.02, -6667.23, -6530.87, -6716.19, -6467.66, -87324.30, -89240.81, -95615.59, -132526.19, 0.014, 0.944, 0.310, 03:58:27.507
126, -6951.46, -7064.54, -6983.78, -6926.96, -85546.43, -90541.84, -109321.73, -131342.02, -6678.28, -6532.14, -6714.58, -6461.71, -87331.95, -89232.23, -95610.05, -132519.89, 0.000, 0.000, 0.000, 03:58:27.511
127, -6966.19, -7069.12, -6986.46, -6925.53, -85566.86, -90537.13, -109323.79, -131336.25, -6678.28, -6532.14, -6714.58, -6461.71, -87331.95, -89232.23, -95610.05, -132519.89, 0.000, 0.000, 0.000, 03:58:27.515
128, -6966.19, -7069.12, -6986.46, -6925.53, -85566.86, -90537.13, -109323.79, -131336.25, -6668.06, -6532.41, -6717.10, -6468.42, -87326.54, -89242.00, -95615.98, -132526.75, 0.000, 0.000, 0.000, 03:58:27.519
129, -6948.84, -7066.26, -6986.17, -6930.38, -85545.02, -90544.09, -109323.70, -131346.77, -6668.06, -6532.41, -6717.10, -6468.42, -87326.54, -89242.00, -95615.98, -132526.75, 0.000, 0.000, 0.000, 03:58:27.523
130, -6948.84, -7066.26, -6986.17, -6930.38, -85545.02, -90544.09, -109323.70, -131346.77, -6672.73, -6530.06, -6716.12, -6464.24, -87329.07, -89235.76, -95613.38, -132523.00, 0.000, 0.000, 0.000, 03:58:27.528
131, -6960.94, -7066.95, -6984.54, -6925.17, -85562.19, -90535.89, -109322.47, -131336.67, -6672.73, -6530.06, -6716.12, -6464.24, -87329.07, -89235.76, -95613.38, -132523.00, 0.000, 0.000, 0.000, 03:58:27.532
132, -6960.94, -7066.95, -6984.54, -6925.17, -85562.19, -90535.89, -109322.47, -131336.67, -6661.94, -6527.11, -6715.13, -6466.72, -87322.38, -89240.70, -95614.75, -132525.09, 0.000, 0.000, 0.000, 03:58:27.535
133, -6940.64, -7062.50, -6983.24, -6929.49, -85537.15, -90545.48, -109320.95, -131347.09, -6661.94, -6527.11, -6715.13, -6466.72, -87322.38, -89240.70, -95614.75, -132525.09, 0.000, 0.000, 0.000, 03:58:27.539
134, -6940.64, -7062.50, -6983.24, -6929.49, -85537.15, -90545.48, -109320.95, -131347.09, -6666.23, -6527.38, -6717.64, -6467.39, -87326.09, -89239.56, -95616.80, -132526.02, 0.000, 0.000, 0.000, 03:58:27.542
135, -6959.95, -7069.21, -6989.73, -6930.14, -85562.77, -90543.54, -109326.31, -131341.91, -6666.23, -6527.38, -6717.64, -6467.39, -87326.09, -89239.56, -95616.80, -132526.02, 0.014, 0.934, 0.302, 03:58:27.547
136, -6959.95, -7069.21, -6989.73, -6930.14, -85562.77, -90543.54, -109326.31, -131341.91, -6663.90, -6530.40, -6720.99, -6473.00, -87326.66, -89246.29, -95621.07, -132531.33, 0.000, 0.000, 0.000, 03:58:27.551
137, -6941.96, -7068.05, -6989.44, -6937.62, -85538.65, -90556.70, -109327.48, -131357.16, -6663.90, -6530.40, -6720.99, -6473.00, -87326.66, -89246.29, -95621.07, -132531.33, 0.000, 0.000, 0.000, 03:58:27.556
138, -6941.96, -7068.05, -6989.44, -6937.62, -85538.65, -90556.70, -109327.48, -131357.16, -6663.86, -6531.22, -6724.57, -6476.40, -87327.68, -89248.73, -95626.28, -132534.73, 0.000, 0.000, 0.000, 03:58:27.559
139, -6958.48, -7071.49, -6992.83, -6935.03, -85560.82, -90549.64, -109329.87, -131348.25, -6663.86, -6531.22, -6724.57, -6476.40, -87327.68, -89248.73, -95626.28, -132534.73, 0.000, 0.000, 0.000, 03:58:27.563
140, -6958.48, -7071.49, -6992.83, -6935.03, -85560.82, -90549.64, -109329.87, -131348.25, -6663.57, -6531.81, -6724.03, -6476.64, -87327.37, -89249.93, -95625.38, -132535.25, 0.000, 0.000, 0.000, 03:58:27.566
141, -6935.95, -7066.82, -6989.68, -6939.46, -85532.21, -90558.09, -109327.45, -131360.81, -6663.57, -6531.81, -6724.03, -6476.64, -87327.37, -89249.93, -95625.38, -132535.25, 0.000, 0.000, 0.000, 03:58:27.571
142, -6935.95, -7066.82, -6989.68, -6939.46, -85532.21, -90558.09, -109327.45, -131360.81, -6651.16, -6525.39, -6722.76, -6476.44, -87319.79, -89249.77, -95627.40, -132535.53, 0.000, 0.000, 0.000, 03:58:27.575
143, -6948.42, -7067.91, -6990.33, -6934.16, -85550.41, -90548.50, -109326.76, -131350.20, -6651.16, -6525.39, -6722.76, -6476.44, -87319.79, -89249.77, -95627.40, -132535.53, 0.000, 0.000, 0.000, 03:58:27.579
144, -6948.42, -7067.91, -6990.33, -6934.16, -85550.41, -90548.50, -109326.76, -131350.20, -6656.04, -6526.44, -6721.73, -6474.83, -87322.07, -89248.08, -95624.47, -132533.70, 0.014, 0.942, 0.300, 03:58:27.583
145, -6927.88, -7062.99, -6986.62, -6938.12, -85524.50, -90558.00, -109324.59, -131361.08, -6656.04, -6526.44, -6721.73, -6474.83, -87322.07, -89248.08, -95624.47, -132533.70, 0.000, 0.000, 0.000, 03:58:27.587
146, -6927.88, -7062.99, -6986.62, -6938.12, -85524.50, -90558.00, -109324.59, -131361.08, -6641.46, -6520.61, -6721.93, -6477.71, -87313.11, -89251.41, -95629.41, -132536.83, 0.000, 0.000, 0.000, 03:58:27.591
147, -6939.64, -7064.49, -6988.83, -6935.23, -85540.39, -90551.85, -109325.77, -131353.38, -6641.46, -6520.61, -6721.93, -6477.71, -87313.11, -89251.41, -95629.41, -132536.83, 0.000, 0.000, 0.000, 03:58:27.595
148, -6939.64, -7064.49, -6988.83, -6935.23, -85540.39, -90551.85, -109325.77, -131353.38, -6648.88, -6522.75, -6720.77, -6474.79, -87317.98, -89247.49, -95625.34, -132533.84, 0.000, 0.000, 0.000, 03:58:27.600
149, -6919.56, -7059.98, -6984.72, -6936.64, -85516.74, -90558.70, -109321.82, -131362.41, -6648.88, -6522.75, -6720.77, -6474.79, -87317.98, -89247.49, -95625.34, -132533.84, 0.000, 0.000, 0.000, 03:58:27.604
150, -6919.56, -7059.98, -6984.72, -6936.64, -85516.74, -90558.70, -109321.82, -131362.41, -6629.73, -6516.16, -6720.90, -6479.19, -87305.55, -89253.46, -95631.47, -132538.36, 0.000, 0.000, 0.000, 03:58:27.607
151, -6928.79, -7062.61, -6988.43, -6937.13, -85529.02, -90556.68, -109325.62, -131359.30, -6629.73, -6516.16, -6720.90, -6479.19, -87305.55, -89253.46, -95631.47, -132538.36, 0.000, 0.000, 0.000, 03:58:27.612
152, -6928.79, -7062.61, -6988.43, -6937.13, -85529.02, -90556.68, -109325.62, -131359.30, -6641.44, -6519.78, -6722.02, -6477.54, -87313.82, -89250.22, -95629.32, -132536.92, 0.000, 0.000, 0.000, 03:58:27.614
153, -6912.63, -7058.28, -6983.91, -6938.92, -85508.52, -90563.30, -109322.31, -131366.36, -6641.44, -6519.78, -6722.02, -6477.54, -87313.82, -89250.22, -95629.32, -132536.92, 0.000, 0.000, 0.000, 03:58:27.619
154, -6912.63, -7058.28, -6983.91, -6938.92, -85508.52, -90563.30, -109322.31, -131366.36, -6619.87, -6512.29, -6722.42, -6483.08, -87299.59, -89258.34, -95636.63, -132542.75, 0.012, 0.952, 0.312, 03:58:27.623
155, -6918.33, -7060.92, -6987.18, -6939.34, -85515.54, -90561.22, -109324.55, -131364.42, -6619.87, -6512.29, -6722.42, -6483.08, -87299.59, -89258.34, -95636.63, -132542.75, 0.000, 0.000, 0.000, 03:58:27.627
156, -6918.33, -7060.92, -6987.18, -6939.34, -85515.54, -90561.22, -109324.55, -131364.42, -6635.07, -6516.81, -6724.28, -6481.07, -87310.52, -89254.67, -95634.35, -132540.88, 0.000, 0.000, 0.000, 03:58:27.631
157, -6909.95, -7060.80, -6987.40, -6943.08, -85505.27, -90567.03, -109324.68, -131371.86, -6635.07, -6516.81, -6724.28, -6481.07, -87310.52, -89254.67, -95634.35, -132540.88, 0.000, 0.000, 0.000, 03:58:27.635
158, -6909.95, -7060.80, -6987.40, -6943.08, -85505.27, -90567.03, -109324.68, -131371.86, -6612.54, -6508.51, -6724.54, -6487.01, -87295.79, -89263.37, -95641.62, -132547.16, 0.000, 0.000, 0.000, 03:58:27.639
159, -6909.66, -7059.42, -6987.33, -6942.54, -85504.20, -90563.86, -109324.52, -131370.45, -6612.54, -6508.51, -6724.54, -6487.01, -87295.79, -89263.37, -95641.62, -132547.16, 0.000, 0.000, 0.000, 03:58:27.643
160, -6909.66, -7059.42, -6987.33, -6942.54, -85504.20, -90563.86, -109324.52, -131370.45, -6629.33, -6513.12, -6725.35, -6483.01, -87306.78, -89256.37, -95637.55, -132542.86, 0.000, 0.000, 0.000, 03:58:27.646
161, -6907.49, -7061.27, -6986.57, -6944.04, -85501.79, -90566.09, -109324.50, -131375.14, -6629.33, -6513.12, -6725.35, -6483.01, -87306.78, -89256.37, -95637.55, -132542.86, 0.000, 0.000, 0.000, 03:58:27.651
162, -6907.49, -7061.27, -6986.57, -6944.04, -85501.79, -90566.09, -109324.50, -131375.14, -6607.91, -6508.92, -6726.13, -6489.90, -87293.26, -89265.69, -95645.03, -132549.63, 0.000, 0.000, 0.000, 03:58:27.655
163, -6901.61, -7058.12, -6986.91, -6943.66, -85495.24, -90564.91, -109323.97, -131376.02, -6607.91, -6508.92, -6726.13, -6489.90, -87293.26, -89265.69, -95645.03, -132549.63, 0.000, 0.000, 0.000, 03:58:27.659
164, -6901.61, -7058.12, -6986.91, -6943.66, -85495.24, -90564.91, -109323.97, -131376.02, -6621.82, -6512.11, -6724.57, -6483.01, -87301.84, -89255.12, -95638.82, -132542.98, 0.006, 0.942, 0.294, 03:58:27.663
165, -6901.79, -7056.67, -6983.98, -6941.56, -85495.89, -90563.90, -109321.84, -131373.84, -6621.82, -6512.11, -6724.57, -6483.01, -87301.84, -89255.12, -95638.82, -132542.98, 0.000, 0.000, 0.000, 03:58:27.667
166, -6901.79, -7056.67, -6983.98, -6941.56, -85495.89, -90563.90, -109321.84, -131373.84, -6601.23, -6506.59, -6723.76, -6487.64, -87287.54, -89262.29, -95643.83, -132547.45, 0.000, 0.000, 0.000, 03:58:27.670
167, -6894.35, -7055.26, -6984.32, -6943.39, -85485.79, -90567.23, -109322.24, -131378.09, -6601.23, -6506.59, -6723.76, -6487.64, -87287.54, -89262.29, -95643.83, -132547.45, 0.000, 0.000, 0.000, 03:58:27.674
168, -6894.35, -7055.26, -6984.32, -6943.39, -85485.79, -90567.23, -109322.24, -131378.09, -6616.90, -6510.01, -6725.28, -6484.38, -87298.58, -89255.92, -95641.16, -132544.08, 0.000, 0.000, 0.000, 03:58:27.679
169, -6899.80, -7055.71, -6983.36, -6940.93, -85494.21, -90563.12, -109321.26, -131373.77, -6616.90, -6510.01, -6725.28, -6484.38, -87298.58, -89255.92, -95641.16, -132544.08, 0.000, 0.000, 0.000, 03:58:27.683
170, -6899.80, -7055.71, -6983.36, -6940.93, -85494.21, -90563.12, -109321.26, -131373.77, -6594.61, -6499.60, -6720.16, -6484.38, -87282.11, -89259.48, -95641.26, -132544.41, 0.000, 0.000, 0.000, 03:58:27.687
171, -6883.20, -7048.00, -6978.15, -6938.43, -85473.91, -90561.17, -109315.52, -131373.88, -6594.61, -6499.60, -6720.16, -6484.38, -87282.11, -89259.48, -95641.26, -132544.41, 0.000, 0.000, 0.000, 03:58:27.691
172, -6883.20, -7048.00, -6978.15, -6938.43, -85473.91, -90561.17, -109315.52, -131373.88, -6610.53, -6503.31, -6722.33, -6481.56, -87292.97, -89254.13, -95639.24, -132541.48, 0.000, 0.000, 0.000, 03:58:27.696
173, -6900.18, -7056.20, -6983.91, -6940.40, -85495.84, -90560.17, -109320.81, -131372.02, -6610.53, -6503.31, -6722.33, -6481.56, -87292.97, -89254.13, -95639.24, -132541.48, 0.000, 0.000, 0.000, 03:58:27.698
174, -6900.18, -7056.20, -6983.91, -6940.40, -85495.84, -90560.17, -109320.81, -131372.02, -6598.59, -6502.30, -6724.14, -6487.66, -87286.53, -89262.96, -95644.66, -132547.41, 0.014, 0.938, 0.300, 03:58:27.702
175, -6885.83, -7052.94, -6983.71, -6943.95, -85477.43, -90567.08, -109320.66, -131379.42, -6598.59, -6502.30, -6724.14, -6487.66, -87286.53, -89262.96, -95644.66, -132547.41, 0.000, 0.000, 0.000, 03:58:27.707
176, -6885.83, -7052.94, -6983.71, -6943.95, -85477.43, -90567.08, -109320.66, -131379.42, -6610.93, -6505.34, -6726.35, -6485.98, -87295.27, -89258.29, -95644.03, -132545.61, 0.000, 0.000, 0.000, 03:58:27.711
177, -6902.64, -7057.18, -6987.29, -6941.49, -85500.25, -90564.13, -109322.78, -131370.20, -6610.93, -6505.34, -6726.35, -6485.98, -87295.27, -89258.29, -95644.03, -132545.61, 0.000, 0.000, 0.000, 03:58:27.715
178, -6902.64, -7057.18, -6987.29, -6941.49, -85500.25, -90564.13, -109322.78, -131370.20, -6601.56, -6503.04, -6724.88, -6488.00, -87289.10, -89262.49, -95644.70, -132547.16, 0.000, 0.000, 0.000, 03:58:27.720
179, -6883.35, -7050.77, -6982.98, -6942.23, -85475.93, -90570.54, -109318.91, -131375.41, -6601.56, -6503.04, -6724.88, -6488.00, -87289.10, -89262.49, -95644.70, -132547.16, 0.000, 0.000, 0.000, 03:58:27.722
180, -6883.35, -7050.77, -6982.98, -6942.23, -85475.93, -90570.54, -109318.91, -131375.41, -6605.54, -6500.60, -6723.23, -6483.39, -87291.63, -89256.01, -95641.55, -132542.69, 0.000, 0.000, 0.000, 03:58:27.726
181, -6900.79, -7053.41, -6984.34, -6937.22, -85499.73, -90561.71, -109319.18, -131363.09, -6605.54, -6500.60, -6723.23, -6483.39, -87291.63, -89256.01, -95641.55, -132542.69, 0.000, 0.000, 0.000, 03:58:27.731
182, -6900.79, -7053.41, -6984.34, -6937.22, -85499.73, -90561.71, -109319.18, -131363.09, -6603.06, -6500.04, -6722.82, -6484.46, -87289.08, -89259.16, -95641.62, -132543.94, 0.000, 0.000, 0.000, 03:58:27.735
183, -6886.21, -7053.18, -6985.01, -6943.84, -85479.51, -90570.88, -109320.14, -131375.44, -6603.06, -6500.04, -6722.82, -6484.46, -87289.08, -89259.16, -95641.62, -132543.94, 0.000, 0.000, 0.000, 03:58:27.739
184, -6886.21, -7053.18, -6985.01, -6943.84, -85479.51, -90570.88, -109320.14, -131375.44, -6608.65, -6503.20, -6727.56, -6487.71, -87295.36, -89261.15, -95646.20, -132546.83, 0.006, 0.944, 0.284, 03:58:27.744
185, -6906.02, -7058.64, -6988.72, -6940.22, -85506.23, -90560.99, -109322.11, -131365.52, -6608.65, -6503.20, -6727.56, -6487.71, -87295.36, -89261.15, -95646.20, -132546.83, 0.000, 0.000, 0.000, 03:58:27.748
186, -6906.02, -7058.64, -6988.72, -6940.22, -85506.23, -90560.99, -109322.11, -131365.52, -6608.09, -6502.08, -6724.72, -6485.29, -87293.46, -89259.30, -95642.28, -132544.34, 0.000, 0.000, 0.000, 03:58:27.751
187, -6884.05, -7051.35, -6983.24, -6941.27, -85478.92, -90565.96, -109317.41, -131373.45, -6608.09, -6502.08, -6724.72, -6485.29, -87293.46, -89259.30, -95642.28, -132544.34, 0.000, 0.000, 0.000, 03:58:27.755
188, -6884.05, -7051.35, -6983.24, -6941.27, -85478.92, -90565.96, -109317.41, -131373.45, -6602.50, -6499.42, -6724.54, -6484.84, -87289.86, -89257.46, -95643.71, -132543.97, 0.000, 0.000, 0.000, 03:58:27.758
189, -6903.54, -7055.75, -6986.31, -6937.94, -85503.89, -90558.98, -109319.92, -131363.81, -6602.50, -6499.42, -6724.54, -6484.84, -87289.86, -89257.46, -95643.71, -132543.97, 0.000, 0.000, 0.000, 03:58:27.762
190, -6903.54, -7055.75, -6986.31, -6937.94, -85503.89, -90558.98, -109319.92, -131363.81, -6610.48, -6505.92, -6725.80, -6485.38, -87296.03, -89257.42, -95642.95, -132544.09, 0.000, 0.000, 0.000, 03:58:27.767
191, -6888.43, -7054.95, -6987.24, -6944.42, -85483.71, -90571.23, -109321.04, -131376.83, -6610.48, -6505.92, -6725.80, -6485.38, -87296.03, -89257.42, -95642.95, -132544.09, 0.000, 0.000, 0.000, 03:58:27.771
192, -6888.43, -7054.95, -6987.24, -6944.42, -85483.71, -90571.23, -109321.04, -131376.83, -6604.67, -6505.45, -6728.61, -6489.52, -87292.25, -89261.24, -95649.13, -132548.59, 0.000, 0.000, 0.000, 03:58:27.774
193, -6904.79, -7057.47, -6989.23, -6941.18, -85504.83, -90562.31, -109323.02, -131367.48, -6604.67, -6505.45, -6728.61, -6489.52, -87292.25, -89261.24, -95649.13, -132548.59, 0.000, 0.000, 0.000, 03:58:27.779
194, -6904.79, -7057.47, -6989.23, -6941.18, -85504.83, -90562.31, -109323.02, -131367.48, -6612.65, -6507.08, -6726.94, -6485.29, -87297.46, -89256.23, -95643.73, -132544.45, 0.010, 0.944, 0.288, 03:58:27.782
195, -6888.25, -7053.99, -6984.88, -6943.23, -85483.41, -90567.66, -109320.08, -131376.00, -6612.65, -6507.08, -6726.94, -6485.29, -87297.46, -89256.23, -95643.73, -132544.45, 0.000, 0.000, 0.000, 03:58:27.787
196, -6888.25, -7053.99, -6984.88, -6943.23, -85483.41, -90567.66, -109320.08, -131376.00, -6600.16, -6501.88, -6728.28, -6489.90, -87289.05, -89262.52, -95649.98, -132548.91, 0.000, 0.000, 0.000, 03:58:27.790
197, -6901.48, -7058.43, -6989.79, -6943.01, -85500.74, -90562.96, -109323.77, -131372.06, -6600.16, -6501.88, -6728.28, -6489.90, -87289.05, -89262.52, -95649.98, -132548.91, 0.000, 0.000, 0.000, 03:58:27.795
198, -6901.48, -7058.43, -6989.79, -6943.01, -85500.74, -90562.96, -109323.77, -131372.06, -6612.88, -6505.97, -6730.11, -6489.07, -87298.49, -89261.09, -95648.38, -132548.45, 0.000, 0.000, 0.000, 03:58:27.799
199, -6885.99, -7055.40, -6986.91, -6946.79, -85480.71, -90571.39, -109322.40, -131381.66, -6612.88, -6505.97, -6730.11, -6489.07, -87298.49, -89261.09, -95648.38, -132548.45, 0.000, 0.000, 0.000, 03:58:27.802
200, -6885.99, -7055.40, -6986.91, -6946.79, -85480.71, -90571.39, -109322.40, -131381.66, -6592.16, -6498.21, -6730.18, -6494.10, -87285.05, -89268.62, -95655.07, -132553.91, 0.000, 0.000, 0.000, 03:58:27.806
201, -6891.87, -7056.45, -6989.10, -6945.11, -85489.09, -90569.13, -109323.18, -131376.91, -6592.16, -6498.21, -6730.18, -6494.10, -87285.05, -89268.62, -95655.07, -132553.91, 0.000, 0.000, 0.000, 03:58:27.810
202, -6891.87, -7056.45, -6989.10, -6945.11, -85489.09, -90569.13, -109323.18, -131376.91, -6605.07, -6500.38, -6728.28, -6489.02, -87293.10, -89261.91, -95649.13, -132548.61, 0.000, 0.000, 0.000, 03:58:27.815
203, -6878.62, -7051.28, -6983.69, -6944.17, -85473.56, -90573.09, -109318.84, -131379.50, -6605.07, -6500.38, -6728.28, -6489.02, -87293.10, -89261.91, -95649.13, -132548.61, 0.010, 0.940, 0.274, 03:58:27.818
204, -6878.62, -7051.28, -6983.69, -6944.17, -85473.56, -90573.09, -109318.84, -131379.50, -6581.16, -6489.94, -6724.95, -6490.81, -87275.89, -89266.77, -95652.09, -132550.78, 0.000, 0.000, 0.000, 03:58:27.823
205, -6878.62, -7047.68, -6980.52, -6939.97, -85473.70, -90566.74, -109316.23, -131373.56, -6581.16, -6489.94, -6724.95, -6490.81, -87275.89, -89266.77, -95652.09, -132550.78, 0.000, 0.000, 0.000, 03:58:27.827
206, -6878.62, -7047.68, -6980.52, -6939.97, -85473.70, -90566.74, -109316.23, -131373.56, -6597.23, -6493.70, -6724.14, -6485.29, -87286.71, -89259.41, -95646.24, -132545.55, 0.000, 0.000, 0.000, 03:58:27.831
207, -6878.75, -7051.77, -6982.66, -6944.13, -85473.45, -90571.81, -109318.53, -131379.95, -6597.23, -6493.70, -6724.14, -6485.29, -87286.71, -89259.41, -95646.24, -132545.55, 0.000, 0.000, 0.000, 03:58:27.834
208, -6878.75, -7051.77, -6982.66, -6944.13, -85473.45, -90571.81, -109318.53, -131379.95, -6582.12, -6492.69, -6728.23, -6494.66, -87277.86, -89272.22, -95656.39, -132555.34, 0.000, 0.000, 0.000, 03:58:27.839
209, -6879.26, -7052.40, -6985.61, -6946.03, -85474.09, -90571.08, -109320.91, -131382.03, -6582.12, -6492.69, -6728.23, -6494.66, -87277.86, -89272.22, -95656.39, -132555.34, 0.000, 0.000, 0.000, 03:58:27.842
210, -6879.26, -7052.40, -6985.61, -6946.03, -85474.09, -90571.08, -109320.91, -131382.03, -6598.46, -6496.80, -6727.03, -6488.06, -87288.86, -89262.72, -95649.98, -132549.17, 0.000, 0.000, 0.000, 03:58:27.846
211, -6877.74, -7049.36, -6981.92, -6942.70, -85474.14, -90568.20, -109317.51, -131379.30, -6598.46, -6496.80, -6727.03, -6488.06, -87288.86, -89262.72, -95649.98, -132549.17, 0.000, 0.000, 0.000, 03:58:27.851
212, -6877.74, -7049.36, -6981.92, -6942.70, -85474.14, -90568.20, -109317.51, -131379.30, -6578.25, -6492.09, -6724.75, -6491.28, -87275.24, -89268.77, -95653.30, -132552.66, 0.000, 0.000, 0.000, 03:58:27.854
213, -6873.92, -7048.02, -6982.75, -6943.01, -85469.16, -90570.59, -109317.10, -131380.22, -6578.25, -6492.09, -6724.75, -6491.28, -87275.24, -89268.77, -95653.30, -132552.66, 0.018, 0.950, 0.298, 03:58:27.858
214, -6873.92, -7048.02, -6982.75, -6943.01, -85469.16, -90570.59, -109317.10, -131380.22, -6595.26, -6496.24, -6722.62, -6483.64, -87285.82, -89257.87, -95645.62, -132544.86, 0.000, 0.000, 0.000, 03:58:27.862
215, -6880.54, -7048.02, -6981.50, -6939.72, -85479.55, -90568.05, -109315.96, -131374.30, -6595.26, -6496.24, -6722.62, -6483.64, -87285.82, -89257.87, -95645.62, -132544.86, 0.000, 0.000, 0.000, 03:58:27.867
216, -6880.54, -7048.02, -6981.50, -6939.72, -85479.55, -90568.05, -109315.96, -131374.30, -6581.87, -6495.15, -6723.69, -6489.45, -87277.59, -89266.80, -95650.91, -132551.09, 0.000, 0.000, 0.000, 03:58:27.870
217, -6875.20, -7046.77, -6981.54, -6942.88, -85471.62, -90571.70, -109317.48, -131379.39, -6581.87, -6495.15, -6723.69, -6489.45, -87277.59, -89266.80, -95650.91, -132551.09, 0.000, 0.000, 0.000, 03:58:27.875
218, -6875.20, -7046.77, -6981.54, -6942.88, -85471.62, -90571.70, -109317.48, -131379.39, -6601.27, -6501.07, -6724.97, -6484.75, -87290.94, -89259.70, -95646.66, -132546.47, 0.000, 0.000, 0.000, 03:58:27.880
219, -6889.97, -7051.46, -6982.64, -6939.75, -85491.59, -90565.31, -109317.66, -131371.56, -6601.27, -6501.07, -6724.97, -6484.75, -87290.94, -89259.70, -95646.66, -132546.47, 0.000, 0.000, 0.000, 03:58:27.882
220, -6889.97, -7051.46, -6982.64, -6939.75, -85491.59, -90565.31, -109317.66, -131371.56, -6589.50, -6497.81, -6722.58, -6486.27, -87282.51, -89264.88, -95647.29, -132548.03, 0.000, 0.000, 0.000, 03:58:27.885
221, -6877.21, -7046.39, -6980.09, -6939.39, -85476.27, -90565.80, -109314.82, -131374.67, -6589.50, -6497.81, -6722.58, -6486.27, -87282.51, -89264.88, -95647.29, -132548.03, 0.000, 0.000, 0.000, 03:58:27.890
222, -6877.21, -7046.39, -6980.09, -6939.39, -85476.27, -90565.80, -109314.82, -131374.67, -6602.93, -6499.17, -6721.86, -6480.40, -87291.85, -89256.66, -95642.33, -132542.47, 0.000, 0.000, 0.000, 03:58:27.895
223, -6897.75, -7051.89, -6983.44, -6938.12, -85502.98, -90561.71, -109318.73, -131367.67, -6602.93, -6499.17, -6721.86, -6480.40, -87291.85, -89256.66, -95642.33, -132542.47, 0.014, 0.940, 0.298, 03:58:27.898
224, -6897.75, -7051.89, -6983.44, -6938.12, -85502.98, -90561.71, -109318.73, -131367.67, -6598.84, -6499.84, -6723.00, -6484.35, -87289.44, -89263.32, -95644.72, -132546.13, 0.000, 0.000, 0.000, 03:58:27.903
225, -6882.93, -7047.19, -6980.76, -6938.83, -85484.63, -90568.04, -109315.80, -131371.61, -6598.84, -6499.84, -6723.00, -6484.35, -87289.44, -89263.32, -95644.72, -132546.13, 0.000, 0.000, 0.000, 03:58:27.907
226, -6882.93, -7047.19, -6980.76, -6938.83, -85484.63, -90568.04, -109315.80, -131371.61, -6607.82, -6498.88, -6721.24, -6478.92, -87294.91, -89255.67, -95640.01, -132540.45, 0.000, 0.000, 0.000, 03:58:27.911
227, -6902.89, -7050.90, -6982.98, -6934.67, -85511.83, -90561.45, -109317.62, -131360.45, -6607.82, -6498.88, -6721.24, -6478.92, -87294.91, -89255.67, -95640.01, -132540.45, 0.000, 0.000, 0.000, 03:58:27.914
228, -6902.89, -7050.90, -6982.98, -6934.67, -85511.83, -90561.45, -109317.62, -131360.45, -6606.15, -6500.69, -6722.44, -6481.74, -87294.83, -89260.86, -95641.34, -132543.25, 0.000, 0.000, 0.000, 03:58:27.919
229, -6888.99, -7048.94, -6983.06, -6939.64, -85493.54, -90570.05, -109317.98, -131370.20, -6606.15, -6500.69, -6722.44, -6481.74, -87294.83, -89260.86, -95641.34, -132543.25, 0.000, 0.000, 0.000, 03:58:27.922
230, -6888.99, -7048.94, -6983.06, -6939.64, -85493.54, -90570.05, -109317.98, -131370.20, -6614.28, -6501.59, -6723.94, -6480.40, -87299.81, -89258.29, -95641.08, -132541.75, 0.000, 0.000, 0.000, 03:58:27.926
231, -6910.40, -7053.76, -6985.08, -6934.63, -85521.82, -90559.30, -109319.23, -131358.22, -6614.28, -6501.59, -6723.94, -6480.40, -87299.81, -89258.29, -95641.08, -132541.75, 0.000, 0.000, 0.000, 03:58:27.931
232, -6910.40, -7053.76, -6985.08, -6934.63, -85521.82, -90559.30, -109319.23, -131358.22, -6612.18, -6499.73, -6720.52, -6477.69, -87298.45, -89256.93, -95636.90, -132538.89, 0.000, 0.000, 0.000, 03:58:27.934
233, -6889.41, -7046.70, -6979.71, -6934.96, -85495.89, -90562.27, -109314.22, -131364.78, -6612.18, -6499.73, -6720.52, -6477.69, -87298.45, -89256.93, -95636.90, -132538.89, 0.008, 0.940, 0.280, 03:58:27.939
234, -6889.41, -7046.70, -6979.71, -6934.96, -85495.89, -90562.27, -109314.22, -131364.78, -6610.19, -6496.53, -6719.94, -6475.86, -87296.59, -89254.34, -95637.23, -132537.66, 0.000, 0.000, 0.000, 03:58:27.941
235, -6909.17, -7050.75, -6983.87, -6931.28, -85523.20, -90553.62, -109316.70, -131354.09, -6610.19, -6496.53, -6719.94, -6475.86, -87296.59, -89254.34, -95637.23, -132537.66, 0.000, 0.000, 0.000, 03:58:27.945
236, -6909.17, -7050.75, -6983.87, -6931.28, -85523.20, -90553.62, -109316.70, -131354.09, -6616.45, -6500.85, -6720.52, -6475.43, -87301.40, -89253.95, -95635.65, -132537.02, 0.000, 0.000, 0.000, 03:58:27.950
237, -6892.29, -7047.35, -6980.94, -6935.14, -85500.78, -90562.78, -109315.31, -131364.33, -6616.45, -6500.85, -6720.52, -6475.43, -87301.40, -89253.95, -95635.65, -132537.02, 0.000, 0.000, 0.000, 03:58:27.954
238, -6892.29, -7047.35, -6980.94, -6935.14, -85500.78, -90562.78, -109315.31, -131364.33, -6609.99, -6499.89, -6721.79, -6477.36, -87297.93, -89254.85, -95639.52, -132538.84, 0.000, 0.000, 0.000, 03:58:27.958
239, -6911.20, -7052.31, -6987.04, -6933.42, -85526.47, -90556.91, -109319.52, -131356.19, -6609.99, -6499.89, -6721.79, -6477.36, -87297.93, -89254.85, -95639.52, -132538.84, 0.000, 0.000, 0.000, 03:58:27.963
240, -6911.20, -7052.31, -6987.04, -6933.42, -85526.47, -90556.91, -109319.52, -131356.19, -6624.07, -6509.45, -6726.09, -6479.90, -87308.73, -89255.92, -95641.01, -132541.38, 0.000, 0.000, 0.000, 03:58:27.965
241, -6899.56, -7053.56, -6989.79, -6941.83, -85510.57, -90569.76, -109323.02, -131370.52, -6624.07, -6509.45, -6726.09, -6479.90, -87308.73, -89255.92, -95641.01, -132541.38, 0.000, 0.000, 0.000, 03:58:27.970
242, -6899.56, -7053.56, -6989.79, -6941.83, -85510.57, -90569.76, -109323.02, -131370.52, -6612.58, -6506.44, -6727.61, -6483.77, -87302.09, -89260.03, -95646.95, -132545.17, 0.000, 0.000, 0.000, 03:58:27.974
243, -6910.31, -7052.76, -6988.79, -6935.46, -85525.66, -90558.83, -109321.46, -131358.56, -6612.58, -6506.44, -6727.61, -6483.77, -87302.09, -89260.03, -95646.95, -132545.17, 0.008, 0.948, 0.290, 03:58:27.978
244, -6910.31, -7052.76, -6988.79, -6935.46, -85525.66, -90558.83, -109321.46, -131358.56, -6621.17, -6506.75, -6724.59, -6477.69, -87306.96, -89252.97, -95640.49, -132539.22, 0.000, 0.000, 0.000, 03:58:27.983
245, -6893.39, -7048.82, -6986.33, -6938.18, -85504.67, -90565.55, -109319.27, -131366.89, -6621.17, -6506.75, -6724.59, -6477.69, -87306.96, -89252.97, -95640.49, -132539.22, 0.000, 0.000, 0.000, 03:58:27.986
246, -6893.39, -7048.82, -6986.33, -6938.18, -85504.67, -90565.55, -109319.27, -131366.89, -6603.53, -6500.09, -6726.94, -6484.04, -87295.67, -89261.46, -95649.33, -132546.41, 0.000, 0.000, 0.000, 03:58:27.990
247, -6904.54, -7053.67, -6991.74, -6940.78, -85517.77, -90565.60, -109324.75, -131366.39, -6603.53, -6500.09, -6726.94, -6484.04, -87295.67, -89261.46, -95649.33, -132546.41, 0.000, 0.000, 0.000, 03:58:27.993
248, -6904.54, -7053.67, -6991.74, -6940.78, -85517.77, -90565.60, -109324.75, -131366.39, -6618.35, -6504.80, -6729.86, -6483.61, -87306.91, -89259.72, -95648.63, -132545.89, 0.000, 0.000, 0.000, 03:58:27.998
249, -6891.38, -7050.70, -6987.96, -6942.52, -85500.60, -90570.65, -109321.93, -131372.69, -6618.35, -6504.80, -6729.86, -6483.61, -87306.91, -89259.72, -95648.63, -132545.89, 0.000, 0.000, 0.000, 03:58:28.004
250, -6891.38, -7050.70, -6987.96, -6942.52, -85500.60, -90570.65, -109321.93, -131372.69, -6595.96, -6494.63, -6728.48, -6487.33, -87290.94, -89266.00, -95654.16, -132549.81, 0.000, 0.000, 0.000, 03:58:28.006
251, -6892.72, -7049.23, -6988.81, -6940.37, -85503.73, -90564.77, -109321.82, -131369.33, -6595.96, -6494.63, -6728.48, -6487.33, -87290.94, -89266.00, -95654.16, -132549.81, 0.000, 0.000, 0.000, 03:58:28.011
252, -6892.72, -7049.23, -6988.81, -6940.37, -85503.73, -90564.77, -109321.82, -131369.33, -6610.77, -6497.70, -6728.39, -6483.06, -87301.26, -89259.61, -95649.66, -132545.61, 0.000, 0.000, 0.000, 03:58:28.014
253, -6886.37, -7048.02, -6986.28, -6941.27, -85496.05, -90567.23, -109320.77, -131374.14, -6610.77, -6497.70, -6728.39, -6483.06, -87301.26, -89259.61, -95649.66, -132545.61, 0.014, 0.948, 0.294, 03:58:28.017
254, -6886.37, -7048.02, -6986.28, -6941.27, -85496.05, -90567.23, -109320.77, -131374.14, -6589.85, -6490.88, -6727.34, -6487.21, -87286.40, -89266.49, -95655.05, -132550.02, 0.000, 0.000, 0.000, 03:58:28.022
255, -6885.75, -7046.30, -6985.86, -6939.88, -85494.86, -90564.55, -109320.08, -131372.59, -6589.85, -6490.88, -6727.34, -6487.21, -87286.40, -89266.49, -95655.05, -132550.02, 0.000, 0.000, 0.000, 03:58:28.025
0, -6885.75, -7046.30, -6985.86, -6939.88, -85494.86, -90564.55, -109320.08, -131372.59, -6605.95, -6495.46, -6726.40, -6481.02, -87296.99, -89257.22, -95649.10, -132543.97, 0.000, 0.000, 0.000, 03:58:28.030
1, -6883.91, -7045.18, -6984.81, -6939.32, -85493.77, -90565.02, -109318.89, -131373.00, -6605.95, -6495.46, -6726.40, -6481.02, -87296.99, -89257.22, -95649.10, -132543.97, 0.000, 0.000, 0.000, 03:58:28.035
2, -6883.91, -7045.18, -6984.81, -6939.32, -85493.77, -90565.02, -109318.89, -131373.00, -6587.86, -6492.13, -6727.41, -6487.41, -87285.23, -89266.25, -95656.21, -132550.78, 0.000, 0.000, 0.000, 03:58:28.038
3, -6882.73, -7045.85, -6987.33, -6941.80, -85491.62, -90567.52, -109321.35, -131376.47, -6587.86, -6492.13, -6727.41, -6487.41, -87285.23, -89266.25, -95656.21, -132550.78, 0.000, 0.000, 0.000, 03:58:28.043
4, -6882.73, -7045.85, -6987.33, -6941.80, -85491.62, -90567.52, -109321.35, -131376.47, -6607.78, -6497.92, -6729.06, -6483.21, -87298.80, -89259.05, -95652.59, -132546.59, 0.000, 0.000, 0.000, 03:58:28.045
5, -6889.03, -7047.55, -6986.66, -6940.91, -85499.87, -90565.45, -109321.38, -131374.19, -6607.78, -6497.92, -6729.06, -6483.21, -87298.80, -89259.05, -95652.59, -132546.59, 0.000, 0.000, 0.000, 03:58:28.050
6, -6889.03, -7047.55, -6986.66, -6940.91, -85499.87, -90565.45, -109321.38, -131374.19, -6590.05, -6492.29, -6728.21, -6486.86, -87286.53, -89265.60, -95656.52, -132550.42, 0.000, 0.000, 0.000, 03:58:28.053
7, -6880.22, -7044.42, -6986.75, -6941.47, -85489.59, -90564.64, -109320.63, -131376.67, -6590.05, -6492.29, -6728.21, -6486.86, -87286.53, -89265.60, -95656.52, -132550.42, 0.012, 0.934, 0.288, 03:58:28.058
8, -6880.22, -7044.42, -6986.75, -6941.47, -85489.59, -90564.64, -109320.63, -131376.67, -6607.20, -6497.14, -6729.10, -6482.10, -87298.94, -89257.76, -95652.61, -132545.77, 0.000, 0.000, 0.000, 03:58:28.062
9, -6892.29, -7048.29, -6989.03, -6939.66, -85506.75, -90561.04, -109322.04, -131371.59, -6607.20, -6497.14, -6729.10, -6482.10, -87298.94, -89257.76, -95652.61, -132545.77, 0.000, 0.000, 0.000, 03:58:28.067
10, -6892.29, -7048.29, -6989.03, -6939.66, -85506.75, -90561.04, -109322.04, -131371.59, -6593.21, -6494.21, -6727.65, -6484.82, -87289.26, -89263.01, -95654.96, -132548.44, 0.000, 0.000, 0.000, 03:58:28.069
11, -6879.51, -7042.30, -6985.79, -6938.67, -85490.59, -90563.34, -109318.51, -131371.59, -6593.21, -6494.21, -6727.65, -6484.82, -87289.26, -89263.01, -95654.96, -132548.44, 0.000, 0.000, 0.000, 03:58:28.074
12, -6879.51, -7042.30, -6985.79, -6938.67, -85490.59, -90563.34, -109318.51, -131371.59, -6607.11, -6495.98, -6726.67, -6478.83, -87298.11, -89253.64, -95649.57, -132542.13, 0.000, 0.000, 0.000, 03:58:28.077
13, -6896.14, -7046.12, -6988.27, -6936.55, -85512.72, -90560.28, -109320.92, -131363.14, -6607.11, -6495.98, -6726.67, -6478.83, -87298.11, -89253.64, -95649.57, -132542.13, 0.000, 0.000, 0.000, 03:58:28.082
14, -6896.14, -7046.12, -6988.27, -6936.55, -85512.72, -90560.28, -109320.92, -131363.14, -6598.30, -6494.50, -6727.20, -6482.85, -87293.30, -89260.44, -95652.59, -132546.00, 0.000, 0.000, 0.000, 03:58:28.085
15, -6883.31, -7043.03, -6987.69, -6938.79, -85496.42, -90566.74, -109319.96, -131368.06, -6598.30, -6494.50, -6727.20, -6482.85, -87293.30, -89260.44, -95652.59, -132546.00, 0.000, 0.000, 0.000, 03:58:28.090
16, -6883.31, -7043.03, -6987.69, -6938.79, -85496.42, -90566.74, -109319.96, -131368.06, -6611.11, -6494.92, -6727.88, -6479.12, -87301.10, -89254.71, -95649.77, -132542.00, 0.006, 0.930, 0.270, 03:58:28.095
17, -6902.38, -7047.17, -6989.68, -6934.79, -85521.86, -90558.54, -109321.04, -131356.92, -6611.11, -6494.92, -6727.88, -6479.12, -87301.10, -89254.71, -95649.77, -132542.00, 0.000, 0.000, 0.000, 03:58:28.097
18, -6902.38, -7047.17, -6989.68, -6934.79, -85521.86, -90558.54, -109321.04, -131356.92, -6605.16, -6492.69, -6727.09, -6480.28, -87297.69, -89258.41, -95649.98, -132543.34, 0.000, 0.000, 0.000, 03:58:28.101
19, -6885.97, -7042.74, -6986.48, -6937.20, -85500.52, -90562.78, -109318.96, -131364.42, -6605.16, -6492.69, -6727.09, -6480.28, -87297.69, -89258.41, -95649.98, -132543.34, 0.000, 0.000, 0.000, 03:58:28.106
20, -6885.97, -7042.74, -6986.48, -6937.20, -85500.52, -90562.78, -109318.96, -131364.42, -6612.70, -6493.67, -6728.12, -6478.21, -87302.89, -89254.76, -95649.10, -132541.06, 0.000, 0.000, 0.000, 03:58:28.110
21, -6908.66, -7050.75, -6993.30, -6935.59, -85531.61, -90556.97, -109323.30, -131356.23, -6612.70, -6493.67, -6728.12, -6478.21, -87302.89, -89254.76, -95649.10, -132541.06, 0.000, 0.000, 0.000, 03:58:28.113
22, -6908.66, -7050.75, -6993.30, -6935.59, -85531.61, -90556.97, -109323.30, -131356.23, -6613.59, -6498.10, -6729.95, -6481.51, -87305.02, -89259.09, -95650.95, -132544.34, 0.000, 0.000, 0.000, 03:58:28.118
23, -6889.37, -7044.55, -6990.06, -6937.78, -85506.80, -90564.70, -109320.26, -131363.80, -6613.59, -6498.10, -6729.95, -6481.51, -87305.02, -89259.09, -95650.95, -132544.34, 0.000, 0.000, 0.000, 03:58:28.122
24, -6889.37, -7044.55, -6990.06, -6937.78, -85506.80, -90564.70, -109320.26, -131363.80, -6610.64, -6494.17, -6727.27, -6477.54, -87302.23, -89252.97, -95648.59, -132540.30, 0.000, 0.000, 0.000, 03:58:28.126
25, -6908.75, -7047.66, -6991.22, -6932.86, -85532.41, -90557.11, -109321.84, -131351.81, -6610.64, -6494.17, -6727.27, -6477.54, -87302.23, -89252.97, -95648.59, -132540.30, 0.000, 0.000, 0.000, 03:58:28.129
26, -6908.75, -7047.66, -6991.22, -6932.86, -85532.41, -90557.11, -109321.84, -131351.81, -6618.80, -6500.20, -6729.98, -6480.51, -87307.66, -89255.90, -95649.80, -132542.55, 0.010, 0.946, 0.264, 03:58:28.134
27, -6894.02, -7047.91, -6992.07, -6940.15, -85512.16, -90568.39, -109323.30, -131364.91, -6618.80, -6500.20, -6729.98, -6480.51, -87307.66, -89255.90, -95649.80, -132542.55, 0.000, 0.000, 0.000, 03:58:28.137
28, -6894.02, -7047.91, -6992.07, -6940.15, -85512.16, -90568.39, -109323.30, -131364.91, -6612.50, -6497.67, -6730.56, -6481.56, -87304.21, -89256.50, -95652.72, -132543.63, 0.000, 0.000, 0.000, 03:58:28.142
29, -6908.70, -7048.76, -6992.68, -6933.56, -85532.92, -90554.83, -109322.13, -131352.09, -6612.50, -6497.67, -6730.56, -6481.56, -87304.21, -89256.50, -95652.72, -132543.63, 0.000, 0.000, 0.000, 03:58:28.147
30, -6908.70, -7048.76, -6992.68, -6933.56, -85532.92, -90554.83, -109322.13, -131352.09, -6615.87, -6497.07, -6726.96, -6476.48, -87305.60, -89251.23, -95646.77, -132538.70, 0.000, 0.000, 0.000, 03:58:28.149
31, -6889.08, -7043.68, -6988.29, -6935.70, -85508.23, -90560.01, -109318.53, -131360.89, -6615.87, -6497.07, -6726.96, -6476.48, -87305.60, -89251.23, -95646.77, -132538.70, 0.000, 0.000, 0.000, 03:58:28.153
32, -6889.08, -7043.68, -6988.29, -6935.70, -85508.23, -90560.01, -109318.53, -131360.89, -6606.73, -6493.41, -6728.50, -6480.02, -87299.20, -89255.20, -95652.14, -132542.20, 0.000, 0.000, 0.000, 03:58:28.157
33, -6904.50, -7047.33, -6990.66, -6932.62, -85528.30, -90553.26, -109320.14, -131352.19, -6606.73, -6493.41, -6728.50, -6480.02, -87299.20, -89255.20, -95652.14, -132542.20, 0.000, 0.000, 0.000, 03:58:28.162
34, -6904.50, -7047.33, -6990.66, -6932.62, -85528.30, -90553.26, -109320.14, -131352.19, -6615.87, -6496.13, -6727.41, -6476.84, -87305.87, -89250.89, -95647.76, -132538.73, 0.000, 0.000, 0.000, 03:58:28.165
35, -6888.45, -7044.38, -6988.79, -6936.35, -85507.91, -90562.29, -109318.80, -131361.64, -6615.87, -6496.13, -6727.41, -6476.84, -87305.87, -89250.89, -95647.76, -132538.73, 0.000, 0.000, 0.000, 03:58:28.170
36, -6888.45, -7044.38, -6988.79, -6936.35, -85507.91, -90562.29, -109318.80, -131361.64, -6601.19, -6491.91, -6729.51, -6482.90, -87296.48, -89258.11, -95655.61, -132544.86, 0.016, 0.942, 0.274, 03:58:28.175
37, -6900.05, -7048.33, -6993.61, -6936.64, -85522.69, -90559.41, -109322.58, -131358.14, -6601.19, -6491.91, -6729.51, -6482.90, -87296.48, -89258.11, -95655.61, -132544.86, 0.000, 0.000, 0.000, 03:58:28.177
38, -6900.05, -7048.33, -6993.61, -6936.64, -85522.69, -90559.41, -109322.58, -131358.14, -6614.69, -6496.51, -6731.07, -6481.56, -87305.71, -89255.14, -95653.46, -132543.30, 0.000, 0.000, 0.000, 03:58:28.181
39, -6885.66, -7045.74, -6989.10, -6939.66, -85502.98, -90565.04, -109320.59, -131367.30, -6614.69, -6496.51, -6731.07, -6481.56, -87305.71, -89255.14, -95653.46, -132543.30, 0.000, 0.000, 0.000, 03:58:28.186
40, -6885.66, -7045.74, -6989.10, -6939.66, -85502.98, -90565.04, -109320.59, -131367.30, -6593.23, -6489.29, -6732.19, -6487.84, -87291.72, -89263.79, -95661.87, -132549.97, 0.000, 0.000, 0.000, 03:58:28.189
41, -6890.26, -7047.66, -6992.05, -6940.04, -85508.88, -90560.68, -109322.65, -131366.47, -6593.23, -6489.29, -6732.19, -6487.84, -87291.72, -89263.79, -95661.87, -132549.97, 0.000, 0.000, 0.000, 03:58:28.194
42, -6890.26, -7047.66, -6992.05, -6940.04, -85508.88, -90560.68, -109322.65, -131366.47, -6606.64, -6492.15, -6731.88, -6483.88, -87300.57, -89258.34, -95657.82, -132546.58, 0.000, 0.000, 0.000, 03:58:28.198
43, -6880.31, -7045.98, -6990.04, -6941.89, -85496.80, -90563.68, -109320.91, -131373.09, -6606.64, -6492.15, -6731.88, -6483.88, -87300.57, -89258.34, -95657.82, -132546.58, 0.000, 0.000, 0.000, 03:58:28.201
44, -6880.31, -7045.98, -6990.04, -6941.89, -85496.80, -90563.68, -109320.91, -131373.09, -6585.49, -6486.03, -6732.39, -6489.96, -87286.58, -89267.30, -95665.28, -132552.72, 0.000, 0.000, 0.000, 03:58:28.206
45, -6880.52, -7045.40, -6989.73, -6940.84, -85497.03, -90561.02, -109320.81, -131371.88, -6585.49, -6486.03, -6732.39, -6489.96, -87286.58, -89267.30, -95665.28, -132552.72, 0.000, 0.000, 0.000, 03:58:28.208
46, -6880.52, -7045.40, -6989.73, -6940.84, -85497.03, -90561.02, -109320.81, -131371.88, -6601.65, -6491.17, -6732.99, -6485.92, -87297.57, -89260.23, -95661.06, -132548.66, 0.016, 0.940, 0.286, 03:58:28.214
47, -6877.18, -7045.11, -6989.26, -6942.50, -85493.30, -90565.11, -109320.84, -131375.39, -6601.65, -6491.17, -6732.99, -6485.92, -87297.57, -89260.23, -95661.06, -132548.66, 0.000, 0.000, 0.000, 03:58:28.218
48, -6877.18, -7045.11, -6989.26, -6942.50, -85493.30, -90565.11, -109320.84, -131375.39, -6579.19, -6485.20, -6731.99, -6490.92, -87282.38, -89267.52, -95666.65, -132553.80, 0.000, 0.000, 0.000, 03:58:28.221
49, -6872.87, -7042.90, -6989.73, -6941.96, -85488.29, -90565.71, -109320.26, -131374.50, -6579.19, -6485.20, -6731.99, -6490.92, -87282.38, -89267.52, -95666.65, -132553.80, 0.000, 0.000, 0.000, 03:58:28.228
50, -6872.87, -7042.90, -6989.73, -6941.96, -85488.29, -90565.71, -109320.26, -131374.50, -6594.37, -6488.67, -6730.33, -6484.33, -87292.19, -89257.69, -95660.10, -132547.00, 0.000, 0.000, 0.000, 03:58:28.231
51, -6871.46, -7038.81, -6983.85, -6936.86, -85487.62, -90561.76, -109315.29, -131368.28, -6594.37, -6488.67, -6730.33, -6484.33, -87292.19, -89257.69, -95660.10, -132547.00, 0.000, 0.000, 0.000, 03:58:28.234
52, -6871.46, -7038.81, -6983.85, -6936.86, -85487.62, -90561.76, -109315.29, -131368.28, -6572.26, -6481.16, -6727.67, -6486.83, -87277.01, -89263.45, -95663.20, -132549.94, 0.000, 0.000, 0.000, 03:58:28.236
53, -6865.85, -7037.98, -6986.08, -6939.79, -85480.00, -90564.62, -109316.84, -131371.50, -6572.26, -6481.16, -6727.67, -6486.83, -87277.01, -89263.45, -95663.20, -132549.94, 0.000, 0.000, 0.000, 03:58:28.241
54, -6865.85, -7037.98, -6986.08, -6939.79, -85480.00, -90564.62, -109316.84, -131371.50, -6592.96, -6487.91, -6731.59, -6485.45, -87292.03, -89259.37, -95662.29, -132548.81, 0.000, 0.000, 0.000, 03:58:28.246
55, -6878.28, -7044.29, -6990.93, -6941.49, -85496.47, -90564.84, -109320.57, -131369.94, -6592.96, -6487.91, -6731.59, -6485.45, -87292.03, -89259.37, -95662.29, -132548.81, 0.000, 0.000, 0.000, 03:58:28.249
56, -6878.28, -7044.29, -6990.93, -6941.49, -85496.47, -90564.84, -109320.57, -131369.94, -6578.88, -6485.16, -6732.61, -6491.30, -87283.54, -89268.26, -95667.67, -132554.41, 0.008, 0.940, 0.306, 03:58:28.254
57, -6868.13, -7041.02, -6989.59, -6942.61, -85483.08, -90566.98, -109319.23, -131372.89, -6578.88, -6485.16, -6732.61, -6491.30, -87283.54, -89268.26, -95667.67, -132554.41, 0.000, 0.000, 0.000, 03:58:28.257
58, -6868.13, -7041.02, -6989.59, -6942.61, -85483.08, -90566.98, -109319.23, -131372.89, -6595.02, -6488.93, -6733.89, -6487.50, -87294.94, -89261.45, -95664.62, -132550.52, 0.000, 0.000, 0.000, 03:58:28.260
59, -6883.24, -7045.52, -6992.72, -6941.36, -85503.20, -90564.30, -109321.57, -131366.25, -6595.02, -6488.93, -6733.89, -6487.50, -87294.94, -89261.45, -95664.62, -132550.52, 0.000, 0.000, 0.000, 03:58:28.265
60, -6883.24, -7045.52, -6992.72, -6941.36, -85503.20, -90564.30, -109321.57, -131366.25, -6582.50, -6485.13, -6731.83, -6489.45, -87285.84, -89265.63, -95665.58, -132552.30, 0.000, 0.000, 0.000, 03:58:28.270
61, -6868.04, -7039.30, -6988.27, -6940.44, -85484.20, -90567.50, -109317.82, -131369.11, -6582.50, -6485.13, -6731.83, -6489.45, -87285.84, -89265.63, -95665.58, -132552.30, 0.000, 0.000, 0.000, 03:58:28.273
62, -6868.04, -7039.30, -6988.27, -6940.44, -85484.20, -90567.50, -109317.82, -131369.11, -6593.56, -6486.10, -6730.47, -6483.75, -87292.95, -89257.17, -95660.57, -132546.31, 0.000, 0.000, 0.000, 03:58:28.278
63, -6883.24, -7040.37, -6987.33, -6934.02, -85505.50, -90558.85, -109316.23, -131356.30, -6593.56, -6486.10, -6730.47, -6483.75, -87292.95, -89257.17, -95660.57, -132546.31, 0.000, 0.000, 0.000, 03:58:28.282
64, -6883.24, -7040.37, -6987.33, -6934.02, -85505.50, -90558.85, -109316.23, -131356.30, -6583.37, -6481.56, -6726.13, -6482.01, -87284.48, -89257.55, -95657.66, -132544.36, 0.000, 0.000, 0.000, 03:58:28.285
65, -6866.75, -7035.46, -6984.72, -6935.72, -85484.42, -90563.09, -109313.44, -131362.27, -6583.37, -6481.56, -6726.13, -6482.01, -87284.48, -89257.55, -95657.66, -132544.36, 0.000, 0.000, 0.000, 03:58:28.289
66, -6866.75, -7035.46, -6984.72, -6935.72, -85484.42, -90563.09, -109313.44, -131362.27, -6594.30, -6484.55, -6728.81, -6481.36, -87292.77, -89254.94, -95658.02, -132543.56, 0.008, 0.942, 0.306, 03:58:28.293
67, -6891.00, -7044.20, -6989.57, -6934.58, -85515.47, -90557.30, -109318.11, -131355.31, -6594.30, -6484.55, -6728.81, -6481.36, -87292.77, -89254.94, -95658.02, -132543.56, 0.000, 0.000, 0.000, 03:58:28.297
68, -6891.00, -7044.20, -6989.57, -6934.58, -85515.47, -90557.30, -109318.11, -131355.31, -6595.17, -6486.81, -6730.09, -6484.11, -87293.46, -89259.59, -95659.12, -132546.00, 0.000, 0.000, 0.000, 03:58:28.302
69, -6874.19, -7040.60, -6987.33, -6937.91, -85493.63, -90563.81, -109316.25, -131364.03, -6595.17, -6486.81, -6730.09, -6484.11, -87293.46, -89259.59, -95659.12, -132546.00, 0.000, 0.000, 0.000, 03:58:28.306
70, -6874.19, -7040.60, -6987.33, -6937.91, -85493.63, -90563.81, -109316.25, -131364.03, -6597.79, -6485.60, -6729.89, -6482.03, -87294.58, -89255.81, -95658.27, -132543.98, 0.000, 0.000, 0.000, 03:58:28.311
71, -6892.41, -7043.28, -6988.94, -6932.28, -85518.69, -90553.46, -109316.39, -131351.08, -6597.79, -6485.60, -6729.89, -6482.03, -87294.58, -89255.81, -95658.27, -132543.98, 0.000, 0.000, 0.000, 03:58:28.315
72, -6892.41, -7043.28, -6988.94, -6932.28, -85518.69, -90553.46, -109316.39, -131351.08, -6597.45, -6486.81, -6728.03, -6480.91, -87295.00, -89255.32, -95655.47, -132542.44, 0.000, 0.000, 0.000, 03:58:28.317
73, -6875.60, -7041.00, -6987.31, -6936.93, -85496.65, -90563.90, -109315.92, -131362.45, -6597.45, -6486.81, -6728.03, -6480.91, -87295.00, -89255.32, -95655.47, -132542.44, 0.000, 0.000, 0.000, 03:58:28.321
74, -6875.60, -7041.00, -6987.31, -6936.93, -85496.65, -90563.90, -109315.92, -131362.45, -6597.25, -6487.50, -6731.23, -6483.95, -87295.14, -89257.38, -95660.14, -132545.50, 0.000, 0.000, 0.000, 03:58:28.324
75, -6895.29, -7044.96, -6990.66, -6933.82, -85522.35, -90557.62, -109318.73, -131351.75, -6597.25, -6487.50, -6731.23, -6483.95, -87295.14, -89257.38, -95660.14, -132545.50, 0.006, 0.948, 0.298, 03:58:28.330
76, -6895.29, -7044.96, -6990.66, -6933.82, -85522.35, -90557.62, -109318.73, -131351.75, -6602.12, -6490.41, -6730.83, -6482.85, -87299.18, -89256.21, -95657.64, -132544.20, 0.000, 0.000, 0.000, 03:58:28.334
77, -6878.06, -7041.81, -6988.83, -6938.27, -85499.45, -90566.96, -109317.46, -131361.00, -6602.12, -6490.41, -6730.83, -6482.85, -87299.18, -89256.21, -95657.64, -132544.20, 0.000, 0.000, 0.000, 03:58:28.337
78, -6878.06, -7041.81, -6988.83, -6938.27, -85499.45, -90566.96, -109317.46, -131361.00, -6593.54, -6486.39, -6731.03, -6484.55, -87293.26, -89258.49, -95661.04, -132545.59, 0.000, 0.000, 0.000, 03:58:28.341
79, -6893.68, -7045.74, -6991.80, -6933.49, -85521.03, -90557.46, -109317.93, -131350.02, -6593.54, -6486.39, -6731.03, -6484.55, -87293.26, -89258.49, -95661.04, -132545.59, 0.000, 0.000, 0.000, 03:58:28.344
80, -6893.68, -7045.74, -6991.80, -6933.49, -85521.03, -90557.46, -109317.93, -131350.02, -6606.10, -6490.83, -6732.70, -6484.38, -87302.09, -89258.11, -95659.47, -132545.22, 0.000, 0.000, 0.000, 03:58:28.349
81, -6881.95, -7047.28, -6993.61, -6942.03, -85504.61, -90568.82, -109320.92, -131364.28, -6606.10, -6490.83, -6732.70, -6484.38, -87302.09, -89258.11, -95659.47, -132545.22, 0.000, 0.000, 0.000, 03:58:28.353
82, -6881.95, -7047.28, -6993.61, -6942.03, -85504.61, -90568.82, -109320.92, -131364.28, -6594.44, -6487.06, -6736.50, -6490.75, -87295.59, -89265.69, -95667.99, -132552.03, 0.000, 0.000, 0.000, 03:58:28.358
83, -6892.65, -7047.37, -6993.03, -6937.47, -85518.30, -90559.32, -109320.27, -131354.89, -6594.44, -6487.06, -6736.50, -6490.75, -87295.59, -89265.69, -95667.99, -132552.03, 0.000, 0.000, 0.000, 03:58:28.362
84, -6892.65, -7047.37, -6993.03, -6937.47, -85518.30, -90559.32, -109320.27, -131354.89, -6605.88, -6490.12, -6734.71, -6485.60, -87302.11, -89259.48, -95661.98, -132546.80, 0.000, 0.000, 0.000, 03:58:28.364
85, -6881.65, -7049.11, -6994.17, -6944.02, -85503.38, -90569.53, -109322.04, -131368.44, -6605.88, -6490.12, -6734.71, -6485.60, -87302.11, -89259.48, -95661.98, -132546.80, 0.008, 0.940, 0.292, 03:58:28.369
86, -6881.65, -7049.11, -6994.17, -6944.02, -85503.38, -90569.53, -109322.04, -131368.44, -6588.27, -6488.40, -6737.91, -6493.83, -87292.09, -89269.20, -95672.03, -132555.23, 0.000, 0.000, 0.000, 03:58:28.373
87, -6885.14, -7047.88, -6994.91, -6941.00, -85509.08, -90563.74, -109321.53, -131363.45, -6588.27, -6488.40, -6737.91, -6493.83, -87292.09, -89269.20, -95672.03, -132555.23, 0.000, 0.000, 0.000, 03:58:28.377
88, -6885.14, -7047.88, -6994.91, -6941.00, -85509.08, -90563.74, -109321.53, -131363.45, -6600.43, -6491.80, -6735.81, -6488.55, -87298.71, -89261.06, -95665.98, -132549.89, 0.000, 0.000, 0.000, 03:58:28.381
89, -6874.52, -7045.36, -6990.98, -6943.01, -85494.95, -90569.13, -109319.70, -131370.70, -6600.43, -6491.80, -6735.81, -6488.55, -87298.71, -89261.06, -95665.98, -132549.89, 0.000, 0.000, 0.000, 03:58:28.385
90, -6874.52, -7045.36, -6990.98, -6943.01, -85494.95, -90569.13, -109319.70, -131370.70, -6577.69, -6485.25, -6734.49, -6492.67, -87283.56, -89267.39, -95671.12, -132553.78, 0.000, 0.000, 0.000, 03:58:28.390
91, -6872.27, -7041.00, -6987.65, -6937.11, -85493.50, -90561.02, -109315.27, -131363.83, -6577.69, -6485.25, -6734.49, -6492.67, -87283.56, -89267.39, -95671.12, -132553.78, 0.000, 0.000, 0.000, 03:58:28.393
92, -6872.27, -7041.00, -6987.65, -6937.11, -85493.50, -90561.02, -109315.27, -131363.83, -6589.99, -6485.22, -6729.64, -6483.57, -87289.59, -89256.08, -95661.46, -132544.77, 0.000, 0.000, 0.000, 03:58:28.396
93, -6866.86, -7039.66, -6985.79, -6938.18, -85487.46, -90563.21, -109314.24, -131367.80, -6589.99, -6485.22, -6729.64, -6483.57, -87289.59, -89256.08, -95661.46, -132544.77, 0.000, 0.000, 0.000, 03:58:28.401
94, -6866.86, -7039.66, -6985.79, -6938.18, -85487.46, -90563.21, -109314.24, -131367.80, -6571.41, -6481.31, -6732.10, -6491.42, -87278.24, -89267.41, -95670.47, -132553.33, 0.000, 0.000, 0.000, 03:58:28.405
95, -6869.47, -7042.34, -6988.81, -6941.67, -85489.18, -90564.86, -109317.82, -131370.42, -6571.41, -6481.31, -6732.10, -6491.42, -87278.24, -89267.41, -95670.47, -132553.33, 0.012, 0.936, 0.312, 03:58:28.409
96, -6869.47, -7042.34, -6988.81, -6941.67, -85489.18, -90564.86, -109317.82, -131370.42, -6592.67, -6489.07, -6735.12, -6489.09, -87293.26, -89263.07, -95668.19, -132551.16, 0.000, 0.000, 0.000, 03:58:28.413
97, -6870.23, -7042.90, -6988.45, -6941.31, -85491.62, -90565.38, -109317.15, -131369.95, -6592.67, -6489.07, -6735.12, -6489.09, -87293.26, -89263.07, -95668.19, -132551.16, 0.000, 0.000, 0.000, 03:58:28.417
98, -6870.23, -7042.90, -6988.45, -6941.31, -85491.62, -90565.38, -109317.15, -131369.95, -6569.87, -6480.08, -6731.09, -6491.08, -87277.30, -89268.53, -95670.38, -132553.22, 0.000, 0.000, 0.000, 03:58:28.421
99, -6863.37, -7038.85, -6987.45, -6940.73, -85483.35, -90565.58, -109315.92, -131369.77, -6569.87, -6480.08, -6731.09, -6491.08, -87277.30, -89268.53, -95670.38, -132553.22, 0.000, 0.000, 0.000, 03:58:28.424
100, -6863.37, -7038.85, -6987.45, -6940.73, -85483.35, -90565.58, -109315.92, -131369.77, -6588.62, -6484.71, -6732.41, -6487.39, -87290.64, -89261.98, -95666.52, -132549.53, 0.000, 0.000, 0.000, 03:58:28.429
101, -6871.51, -7040.49, -6986.84, -6938.94, -85494.15, -90566.02, -109315.65, -131364.63, -6588.62, -6484.71, -6732.41, -6487.39, -87290.64, -89261.98, -95666.52, -132549.53, 0.000, 0.000, 0.000, 03:58:28.433
102, -6871.51, -7040.49, -6986.84, -6938.94, -85494.15, -90566.02, -109315.65, -131364.63, -6570.32, -6477.56, -6728.68, -6488.53, -87276.95, -89266.83, -95667.05, -132550.44, 0.000, 0.000, 0.000, 03:58:28.437
103, -6860.44, -7034.47, -6982.28, -6936.66, -85480.38, -90565.89, -109311.54, -131363.77, -6570.32, -6477.56, -6728.68, -6488.53, -87276.95, -89266.83, -95667.05, -132550.44, 0.000, 0.000, 0.000, 03:58:28.442
104, -6860.44, -7034.47, -6982.28, -6936.66, -85480.38, -90565.89, -109311.54, -131363.77, -6587.17, -6480.91, -6728.63, -6483.28, -87288.70, -89259.34, -95662.24, -132545.42, 0.000, 0.000, 0.000, 03:58:28.445
105, -6875.51, -7039.93, -6986.64, -6936.95, -85500.45, -90563.66, -109315.18, -131359.88, -6587.17, -6480.91, -6728.63, -6483.28, -87288.70, -89259.34, -95662.24, -132545.42, 0.016, 0.938, 0.306, 03:58:28.448
106, -6875.51, -7039.93, -6986.64, -6936.95, -85500.45, -90563.66, -109315.18, -131359.88, -6577.13, -6479.06, -6729.17, -6487.62, -87281.80, -89267.09, -95665.75, -132550.06, 0.000, 0.000, 0.000, 03:58:28.453
107, -6864.44, -7036.37, -6984.05, -6937.65, -85485.83, -90565.45, -109312.86, -131364.28, -6577.13, -6479.06, -6729.17, -6487.62, -87281.80, -89267.09, -95665.75, -132550.06, 0.000, 0.000, 0.000, 03:58:28.457
108, -6864.44, -7036.37, -6984.05, -6937.65, -85485.83, -90565.45, -109312.86, -131364.28, -6591.53, -6482.30, -6728.79, -6482.25, -87291.80, -89259.74, -95661.13, -132544.95, 0.000, 0.000, 0.000, 03:58:28.462
109, -6883.09, -7041.36, -6986.28, -6935.10, -85510.28, -90558.96, -109314.80, -131357.33, -6591.53, -6482.30, -6728.79, -6482.25, -87291.80, -89259.74, -95661.13, -132544.95, 0.000, 0.000, 0.000, 03:58:28.465
110, -6883.09, -7041.36, -6986.28, -6935.10, -85510.28, -90558.96, -109314.80, -131357.33, -6584.65, -6483.12, -6728.43, -6484.96, -87287.52, -89265.29, -95662.53, -132548.02, 0.000, 0.000, 0.000, 03:58:28.469
111, -6868.29, -7037.00, -6985.66, -6937.49, -85492.54, -90564.80, -109313.52, -131364.75, -6584.65, -6483.12, -6728.43, -6484.96, -87287.52, -89265.29, -95662.53, -132548.02, 0.000, 0.000, 0.000, 03:58:28.474
112, -6868.29, -7037.00, -6985.66, -6937.49, -85492.54, -90564.80, -109313.52, -131364.75, -6595.64, -6486.39, -6728.12, -6480.89, -87294.63, -89258.42, -95658.83, -132543.89, 0.000, 0.000, 0.000, 03:58:28.476
113, -6891.27, -7043.46, -6988.56, -6934.65, -85522.33, -90560.80, -109316.30, -131355.05, -6595.64, -6486.39, -6728.12, -6480.89, -87294.63, -89258.42, -95658.83, -132543.89, 0.000, 0.000, 0.000, 03:58:28.486
114, -6891.27, -7043.46, -6988.56, -6934.65, -85522.33, -90560.80, -109316.30, -131355.05, -6597.03, -6492.53, -6730.56, -6485.34, -87296.70, -89264.52, -95661.13, -132547.78, 0.000, 0.000, 0.000, 03:58:28.486
115, -6876.40, -7040.06, -6986.91, -6938.25, -85502.98, -90569.20, -109315.38, -131363.50, -6597.03, -6492.53, -6730.56, -6485.34, -87296.70, -89264.52, -95661.13, -132547.78, 0.004, 0.940, 0.280, 03:58:28.489
116, -6876.40, -7040.06, -6986.91, -6938.25, -85502.98, -90569.20, -109315.38, -131363.50, -6600.27, -6491.30, -6728.03, -6480.35, -87298.31, -89258.34, -95657.17, -132543.19, 0.000, 0.000, 0.000, 03:58:28.493
117, -6895.67, -7042.70, -6989.21, -6932.80, -85530.29, -90559.32, -109316.19, -131350.17, -6600.27, -6491.30, -6728.03, -6480.35, -87298.31, -89258.34, -95657.17, -132543.19, 0.000, 0.000, 0.000, 03:58:28.497
118, -6895.67, -7042.70, -6989.21, -6932.80, -85530.29, -90559.32, -109316.19, -131350.17, -6601.72, -6493.07, -6727.11, -6479.77, -87299.45, -89259.81, -95655.05, -132542.95, 0.000, 0.000, 0.000, 03:58:28.501
119, -6880.07, -7039.88, -6986.28, -6936.42, -85509.86, -90567.68, -109314.80, -131359.39, -6601.72, -6493.07, -6727.11, -6479.77, -87299.45, -89259.81, -95655.05, -132542.95, 0.000, 0.000, 0.000, 03:58:28.505
120, -6880.07, -7039.88, -6986.28, -6936.42, -85509.86, -90567.68, -109314.80, -131359.39, -6603.71, -6492.44, -6728.84, -6480.24, -87301.40, -89260.44, -95656.86, -132543.45, 0.000, 0.000, 0.000, 03:58:28.508
121, -6901.35, -7044.24, -6989.26, -6932.19, -85538.07, -90559.84, -109316.77, -131347.31, -6603.71, -6492.44, -6728.84, -6480.24, -87301.40, -89260.44, -95656.86, -132543.45, 0.000, 0.000, 0.000, 03:58:28.513
122, -6901.35, -7044.24, -6989.26, -6932.19, -85538.07, -90559.84, -109316.77, -131347.31, -6606.73, -6491.91, -6725.48, -6476.31, -87303.12, -89258.00, -95651.09, -132539.47, 0.000, 0.000, 0.000, 03:58:28.518
123, -6880.81, -7037.74, -6985.43, -6933.22, -85514.13, -90566.54, -109312.61, -131353.44, -6606.73, -6491.91, -6725.48, -6476.31, -87303.12, -89258.00, -95651.09, -132539.47, 0.000, 0.000, 0.000, 03:58:28.521
124, -6880.81, -7037.74, -6985.43, -6933.22, -85514.13, -90566.54, -109312.61, -131353.44, -6600.18, -6488.04, -6725.19, -6476.91, -87299.54, -89259.34, -95652.92, -132540.25, 0.000, 0.000, 0.000, 03:58:28.525
125, -6898.62, -7039.88, -6986.40, -6927.19, -85538.89, -90558.20, -109312.70, -131340.48, -6600.18, -6488.04, -6725.19, -6476.91, -87299.54, -89259.34, -95652.92, -132540.25, 0.004, 0.948, 0.278, 03:58:28.529
126, -6898.62, -7039.88, -6986.40, -6927.19, -85538.89, -90558.20, -109312.70, -131340.48, -6607.49, -6487.64, -6720.45, -6470.32, -87302.98, -89252.95, -95644.27, -132533.08, 0.000, 0.000, 0.000, 03:58:28.532
127, -6881.68, -7034.03, -6980.58, -6928.03, -85517.03, -90563.86, -109308.72, -131346.31, -6607.49, -6487.64, -6720.45, -6470.32, -87302.98, -89252.95, -95644.27, -132533.08, 0.000, 0.000, 0.000, 03:58:28.536
128, -6881.68, -7034.03, -6980.58, -6928.03, -85517.03, -90563.86, -109308.72, -131346.31, -6600.83, -6485.34, -6722.78, -6474.41, -87298.31, -89258.56, -95650.11, -132537.56, 0.000, 0.000, 0.000, 03:58:28.541
129, -6901.75, -7041.65, -6987.92, -6929.55, -85542.65, -90559.52, -109314.98, -131342.52, -6600.83, -6485.34, -6722.78, -6474.41, -87298.31, -89258.56, -95650.11, -132537.56, 0.000, 0.000, 0.000, 03:58:28.545
130, -6901.75, -7041.65, -6987.92, -6929.55, -85542.65, -90559.52, -109314.98, -131342.52, -6616.94, -6493.38, -6724.75, -6473.18, -87310.65, -89257.46, -95647.83, -132536.61, 0.000, 0.000, 0.000, 03:58:28.549
131, -6887.82, -7038.63, -6983.96, -6931.50, -85525.08, -90563.77, -109312.41, -131351.52, -6616.94, -6493.38, -6724.75, -6473.18, -87310.65, -89257.46, -95647.83, -132536.61, 0.000, 0.000, 0.000, 03:58:28.553
132, -6887.82, -7038.63, -6983.96, -6931.50, -85525.08, -90563.77, -109312.41, -131351.52, -6600.47, -6487.95, -6724.21, -6476.04, -87299.09, -89262.43, -95652.70, -132540.14, 0.000, 0.000, 0.000, 03:58:28.556
133, -6899.56, -7041.76, -6987.69, -6931.68, -85539.52, -90559.32, -109315.80, -131350.05, -6600.47, -6487.95, -6724.21, -6476.04, -87299.09, -89262.43, -95652.70, -132540.14, 0.000, 0.000, 0.000, 03:58:28.560
134, -6899.56, -7041.76, -6987.69, -6931.68, -85539.52, -90559.32, -109315.80, -131350.05, -6615.18, -6493.92, -6724.03, -6471.97, -87308.68, -89256.57, -95648.07, -132536.56, 0.014, 0.938, 0.292, 03:58:28.564
135, -6885.14, -7036.64, -6981.88, -6931.10, -85521.93, -90561.17, -109311.09, -131355.56, -6615.18, -6493.92, -6724.03, -6471.97, -87308.68, -89256.57, -95648.07, -132536.56, 0.000, 0.000, 0.000, 03:58:28.570
136, -6885.14, -7036.64, -6981.88, -6931.10, -85521.93, -90561.17, -109311.09, -131355.56, -6594.19, -6488.93, -6722.49, -6475.32, -87294.42, -89261.64, -95652.81, -132539.89, 0.000, 0.000, 0.000, 03:58:28.574
137, -6889.39, -7036.89, -6983.36, -6929.26, -85529.06, -90556.68, -109311.74, -131353.48, -6594.19, -6488.93, -6722.49, -6475.32, -87294.42, -89261.64, -95652.81, -132539.89, 0.000, 0.000, 0.000, 03:58:28.577
138, -6889.39, -7036.89, -6983.36, -6929.26, -85529.06, -90556.68, -109311.74, -131353.48, -6610.68, -6495.08, -6721.93, -6470.27, -87305.09, -89253.84, -95647.05, -132534.84, 0.000, 0.000, 0.000, 03:58:28.581
139, -6886.33, -7038.43, -6984.38, -6933.44, -85524.77, -90563.48, -109313.95, -131360.64, -6610.68, -6495.08, -6721.93, -6470.27, -87305.09, -89253.84, -95647.05, -132534.84, 0.000, 0.000, 0.000, 03:58:28.584
140, -6886.33, -7038.43, -6984.38, -6933.44, -85524.77, -90563.48, -109313.95, -131360.64, -6595.82, -6494.72, -6727.05, -6480.35, -87296.59, -89266.41, -95658.20, -132545.11, 0.000, 0.000, 0.000, 03:58:28.589
141, -6890.46, -7040.37, -6987.13, -6935.66, -85529.20, -90564.95, -109317.62, -131362.11, -6595.82, -6494.72, -6727.05, -6480.35, -87296.59, -89266.41, -95658.20, -132545.11, 0.000, 0.000, 0.000, 03:58:28.592
142, -6890.46, -7040.37, -6987.13, -6935.66, -85529.20, -90564.95, -109317.62, -131362.11, -6614.08, -6499.35, -6726.69, -6474.72, -87308.86, -89259.05, -95652.37, -132539.56, 0.000, 0.000, 0.000, 03:58:28.597
143, -6887.87, -7037.89, -6983.91, -6933.15, -85527.38, -90563.84, -109314.31, -131359.31, -6614.08, -6499.35, -6726.69, -6474.72, -87308.86, -89259.05, -95652.37, -132539.56, 0.000, 0.000, 0.000, 03:58:28.601
144, -6887.87, -7037.89, -6983.91, -6933.15, -85527.38, -90563.84, -109314.31, -131359.31, -6592.11, -6489.90, -6723.92, -6477.09, -87293.82, -89265.65, -95655.61, -132542.39, 0.022, 0.932, 0.306, 03:58:28.605
145, -6883.51, -7035.73, -6984.83, -6932.86, -85522.91, -90563.30, -109313.77, -131358.06, -6592.11, -6489.90, -6723.92, -6477.09, -87293.82, -89265.65, -95655.61, -132542.39, 0.000, 0.000, 0.000, 03:58:28.608
146, -6883.51, -7035.73, -6984.83, -6932.86, -85522.91, -90563.30, -109313.77, -131358.06, -6610.26, -6491.48, -6723.85, -6471.52, -87306.16, -89258.05, -95650.30, -132536.91, 0.000, 0.000, 0.000, 03:58:28.612
147, -6889.03, -7036.73, -6984.50, -6931.63, -85530.98, -90561.95, -109313.77, -131354.56, -6610.26, -6491.48, -6723.85, -6471.52, -87306.16, -89258.05, -95650.30, -132536.91, 0.000, 0.000, 0.000, 03:58:28.617
148, -6889.03, -7036.73, -6984.50, -6931.63, -85530.98, -90561.95, -109313.77, -131354.56, -6593.76, -6485.45, -6723.99, -6476.73, -87295.72, -89266.92, -95655.59, -132541.97, 0.000, 0.000, 0.000, 03:58:28.620
149, -6881.54, -7034.07, -6984.63, -6932.10, -85522.42, -90564.35, -109313.10, -131355.52, -6593.76, -6485.45, -6723.99, -6476.73, -87295.72, -89266.92, -95655.59, -132541.97, 0.000, 0.000, 0.000, 03:58:28.625
150, -6881.54, -7034.07, -6984.63, -6932.10, -85522.42, -90564.35, -109313.10, -131355.52, -6608.58, -6486.03, -6721.55, -6468.66, -87304.77, -89256.01, -95647.96, -132533.80, 0.000, 0.000, 0.000, 03:58:28.629
151, -6889.14, -7033.00, -6982.62, -6926.83, -85534.73, -90558.83, -109310.84, -131346.25, -6608.58, -6486.03, -6721.55, -6468.66, -87304.77, -89256.01, -95647.96, -132533.80, 0.000, 0.000, 0.000, 03:58:28.633
152, -6889.14, -7033.00, -6982.62, -6926.83, -85534.73, -90558.83, -109310.84, -131346.25, -6593.61, -6482.70, -6720.59, -6471.77, -87295.31, -89261.89, -95650.94, -132537.13, 0.000, 0.000, 0.000, 03:58:28.636
153, -6880.45, -7030.90, -6983.56, -6929.98, -85523.16, -90564.28, -109311.94, -131352.02, -6593.61, -6482.70, -6720.59, -6471.77, -87295.31, -89261.89, -95650.94, -132537.13, 0.000, 0.000, 0.000, 03:58:28.641
154, -6880.45, -7030.90, -6983.56, -6929.98, -85523.16, -90564.28, -109311.94, -131352.02, -6612.14, -6489.20, -6722.91, -6468.89, -87308.10, -89255.67, -95648.81, -132534.11, 0.012, 0.918, 0.276, 03:58:28.644
155, -6898.02, -7035.66, -6986.57, -6928.15, -85545.95, -90559.37, -109314.16, -131345.08, -6612.14, -6489.20, -6722.91, -6468.89, -87308.10, -89255.67, -95648.81, -132534.11, 0.000, 0.000, 0.000, 03:58:28.648
156, -6898.02, -7035.66, -6986.57, -6928.15, -85545.95, -90559.37, -109314.16, -131345.08, -6602.75, -6488.26, -6722.76, -6471.59, -87302.00, -89260.50, -95650.94, -132537.02, 0.000, 0.000, 0.000, 03:58:28.655
157, -6884.63, -7032.10, -6984.90, -6930.56, -85528.39, -90562.27, -109312.97, -131352.23, -6602.75, -6488.26, -6722.76, -6471.59, -87302.00, -89260.50, -95650.94, -132537.02, 0.000, 0.000, 0.000, 03:58:28.657
158, -6884.63, -7032.10, -6984.90, -6930.56, -85528.39, -90562.27, -109312.97, -131352.23, -6614.08, -6491.15, -6723.34, -6467.59, -87310.25, -89253.64, -95648.27, -132533.30, 0.000, 0.000, 0.000, 03:58:28.661
159, -6903.13, -7035.90, -6986.95, -6926.11, -85554.02, -90552.66, -109313.77, -131342.44, -6614.08, -6491.15, -6723.34, -6467.59, -87310.25, -89253.64, -95648.27, -132533.30, 0.000, 0.000, 0.000, 03:58:28.664
160, -6903.13, -7035.90, -6986.95, -6926.11, -85554.02, -90552.66, -109313.77, -131342.44, -6609.90, -6492.47, -6722.38, -6468.97, -87306.89, -89256.55, -95648.23, -132534.42, 0.000, 0.000, 0.000, 03:58:28.668
161, -6888.76, -7033.40, -6986.17, -6930.25, -85535.36, -90560.26, -109313.70, -131351.97, -6609.90, -6492.47, -6722.38, -6468.97, -87306.89, -89256.55, -95648.23, -132534.42, 0.000, 0.000, 0.000, 03:58:28.673
162, -6888.76, -7033.40, -6986.17, -6930.25, -85535.36, -90560.26, -109313.70, -131351.97, -6616.54, -6494.90, -6723.00, -6466.58, -87312.10, -89251.30, -95647.05, -132531.89, 0.000, 0.000, 0.000, 03:58:28.676
163, -6906.60, -7034.97, -6985.86, -6923.88, -85560.20, -90550.87, -109313.52, -131338.69, -6616.54, -6494.90, -6723.00, -6466.58, -87312.10, -89251.30, -95647.05, -132531.89, 0.000, 0.000, 0.000, 03:58:28.681
164, -6906.60, -7034.97, -6985.86, -6923.88, -85560.20, -90550.87, -109313.52, -131338.69, -6613.55, -6494.61, -6720.43, -6465.15, -87309.22, -89250.71, -95644.05, -132530.11, 0.010, 0.932, 0.272, 03:58:28.685
165, -6888.20, -7030.23, -6983.96, -6926.72, -85538.02, -90560.19, -109311.52, -131346.09, -6613.55, -6494.61, -6720.43, -6465.15, -87309.22, -89250.71, -95644.05, -132530.11, 0.000, 0.000, 0.000, 03:58:28.688
166, -6888.20, -7030.23, -6983.96, -6926.72, -85538.02, -90560.19, -109311.52, -131346.09, -6614.35, -6492.56, -6720.86, -6464.12, -87309.89, -89248.55, -95644.54, -132529.03, 0.000, 0.000, 0.000, 03:58:28.692
167, -6906.82, -7033.00, -6985.81, -6921.62, -85563.66, -90551.61, -109312.56, -131332.92, -6614.35, -6492.56, -6720.86, -6464.12, -87309.89, -89248.55, -95644.54, -132529.03, 0.000, 0.000, 0.000, 03:58:28.696
168, -6906.82, -7033.00, -6985.81, -6921.62, -85563.66, -90551.61, -109312.56, -131332.92, -6616.90, -6492.42, -6720.61, -6463.79, -87312.68, -89249.80, -95642.93, -132528.41, 0.000, 0.000, 0.000, 03:58:28.701
169, -6889.70, -7030.09, -6984.25, -6926.40, -85541.22, -90560.48, -109312.03, -131342.83, -6616.90, -6492.42, -6720.61, -6463.79, -87312.68, -89249.80, -95642.93, -132528.41, 0.000, 0.000, 0.000, 03:58:28.704
170, -6889.70, -7030.09, -6984.25, -6926.40, -85541.22, -90560.48, -109312.03, -131342.83, -6614.26, -6487.33, -6721.75, -6465.13, -87310.11, -89251.61, -95646.04, -132529.80, 0.000, 0.000, 0.000, 03:58:28.709
171, -6909.01, -7035.01, -6988.34, -6922.76, -85567.55, -90552.10, -109314.13, -131331.38, -6614.26, -6487.33, -6721.75, -6465.13, -87310.11, -89251.61, -95646.04, -132529.80, 0.000, 0.000, 0.000, 03:58:28.713
172, -6909.01, -7035.01, -6988.34, -6922.76, -85567.55, -90552.10, -109314.13, -131331.38, -6619.78, -6487.79, -6720.30, -6462.65, -87314.94, -89249.98, -95642.06, -132526.84, 0.000, 0.000, 0.000, 03:58:28.717
173, -6890.42, -7030.45, -6984.50, -6925.15, -85544.28, -90559.41, -109311.18, -131339.56, -6619.78, -6487.79, -6720.30, -6462.65, -87314.94, -89249.98, -95642.06, -132526.84, 0.000, 0.000, 0.000, 03:58:28.722
174, -6890.42, -7030.45, -6984.50, -6925.15, -85544.28, -90559.41, -109311.18, -131339.56, -6609.81, -6482.65, -6720.83, -6464.88, -87308.05, -89252.77, -95646.35, -132529.20, 0.010, 0.944, 0.274, 03:58:28.739
175, -6905.82, -7033.40, -6987.89, -6922.54, -85564.93, -90552.86, -109313.70, -131331.02, -6609.81, -6482.65, -6720.83, -6464.88, -87308.05, -89252.77, -95646.35, -132529.20, 0.000, 0.000, 0.000, 03:58:28.743
178, -6905.82, -7033.40, -6987.89, -6922.54, -85564.93, -90552.86, -109313.70, -131331.02, -6608.81, -6485.49, -6724.43, -6469.76, -87308.37, -89256.81, -95651.74, -132533.44, 0.000, 0.000, 0.000, 03:58:28.746
179, -6902.75, -7034.32, -6988.83, -6925.62, -85560.33, -90554.18, -109315.20, -131337.44, -6608.81, -6485.49, -6724.43, -6469.76, -87308.37, -89256.81, -95651.74, -132533.44, 0.000, 0.000, 0.000, 03:58:28.750
180, -6902.75, -7034.32, -6988.83, -6925.62, -85560.33, -90554.18, -109315.20, -131337.44, -6621.61, -6491.66, -6724.81, -6466.90, -87316.55, -89251.67, -95648.43, -132530.50, 0.000, 0.000, 0.000, 03:58:28.752
181, -6891.51, -7034.52, -6989.12, -6931.25, -85544.95, -90560.91, -109316.19, -131350.05, -6621.61, -6491.66, -6724.81, -6466.90, -87316.55, -89251.67, -95648.43, -132530.50, 0.000, 0.000, 0.000, 03:58:28.757
182, -6891.51, -7034.52, -6989.12, -6931.25, -85544.95, -90560.91, -109316.19, -131350.05, -6603.44, -6488.78, -6726.53, -6473.24, -87305.17, -89259.19, -95656.73, -132537.08, 0.000, 0.000, 0.000, 03:58:28.759
183, -6897.39, -7035.35, -6989.30, -6928.77, -85552.53, -90554.16, -109316.16, -131346.27, -6603.44, -6488.78, -6726.53, -6473.24, -87305.17, -89259.19, -95656.73, -132537.08, 0.000, 0.000, 0.000, 03:58:28.763
184, -6897.39, -7035.35, -6989.30, -6928.77, -85552.53, -90554.16, -109316.16, -131346.27, -6617.95, -6493.23, -6724.59, -6466.90, -87313.24, -89250.02, -95649.91, -132530.66, 0.016, 0.924, 0.280, 03:58:28.766
185, -6887.91, -7032.33, -6984.58, -6929.29, -85540.55, -90555.52, -109313.57, -131351.25, -6617.95, -6493.23, -6724.59, -6466.90, -87313.24, -89250.02, -95649.91, -132530.66, 0.000, 0.000, 0.000, 03:58:28.770
186, -6887.91, -7032.33, -6984.58, -6929.29, -85540.55, -90555.52, -109313.57, -131351.25, -6597.65, -6489.36, -6726.13, -6473.53, -87300.75, -89258.63, -95658.06, -132537.53, 0.000, 0.000, 0.000, 03:58:28.773
187, -6892.34, -7035.59, -6990.53, -6932.53, -85546.45, -90556.32, -109318.20, -131353.69, -6597.65, -6489.36, -6726.13, -6473.53, -87300.75, -89258.63, -95658.06, -132537.53, 0.000, 0.000, 0.000, 03:58:28.775
188, -6892.34, -7035.59, -6990.53, -6932.53, -85546.45, -90556.32, -109318.20, -131353.69, -6618.15, -6497.70, -6729.04, -6471.86, -87315.23, -89254.09, -95655.98, -132535.58, 0.000, 0.000, 0.000, 03:58:28.781
189, -6889.37, -7035.05, -6989.17, -6932.53, -85544.02, -90559.45, -109317.23, -131355.14, -6618.15, -6497.70, -6729.04, -6471.86, -87315.23, -89254.09, -95655.98, -132535.58, 0.000, 0.000, 0.000, 03:58:28.785
190, -6889.37, -7035.05, -6989.17, -6932.53, -85544.02, -90559.45, -109317.23, -131355.14, -6595.31, -6489.09, -6726.71, -6475.03, -87299.61, -89260.26, -95659.92, -132538.63, 0.000, 0.000, 0.000, 03:58:28.788
191, -6885.97, -7032.10, -6987.83, -6931.23, -85539.70, -90559.19, -109316.27, -131352.45, -6595.31, -6489.09, -6726.71, -6475.03, -87299.61, -89260.26, -95659.92, -132538.63, 0.000, 0.000, 0.000, 03:58:28.792
192, -6885.97, -7032.10, -6987.83, -6931.23, -85539.70, -90559.19, -109316.27, -131352.45, -6612.74, -6491.30, -6726.78, -6469.82, -87311.39, -89252.59, -95654.87, -132533.23, 0.000, 0.000, 0.000, 03:58:28.797
193, -6887.78, -7031.64, -6987.24, -6929.53, -85543.70, -90559.20, -109315.07, -131348.22, -6612.74, -6491.30, -6726.78, -6469.82, -87311.39, -89252.59, -95654.87, -132533.23, 0.012, 0.914, 0.274, 03:58:28.801
194, -6887.78, -7031.64, -6987.24, -6929.53, -85543.70, -90559.20, -109315.07, -131348.22, -6592.83, -6481.87, -6724.54, -6472.95, -87297.66, -89259.97, -95658.20, -132536.27, 0.000, 0.000, 0.000, 03:58:28.805
195, -6880.31, -7028.37, -6985.86, -6928.88, -85535.05, -90558.80, -109313.41, -131347.55, -6592.83, -6481.87, -6724.54, -6472.95, -87297.66, -89259.97, -95658.20, -132536.27, 0.000, 0.000, 0.000, 03:58:28.809
196, -6880.31, -7028.37, -6985.86, -6928.88, -85535.05, -90558.80, -109313.41, -131347.55, -6609.57, -6481.92, -6723.65, -6466.38, -87308.57, -89251.61, -95652.34, -132529.80, 0.000, 0.000, 0.000, 03:58:28.812
197, -6887.89, -7028.55, -6984.09, -6925.42, -85545.95, -90553.33, -109312.07, -131340.45, -6609.57, -6481.92, -6723.65, -6466.38, -87308.57, -89251.61, -95652.34, -132529.80, 0.000, 0.000, 0.000, 03:58:28.818
198, -6887.89, -7028.55, -6984.09, -6925.42, -85545.95, -90553.33, -109312.07, -131340.45, -6591.82, -6473.91, -6720.74, -6467.81, -87295.77, -89256.59, -95653.80, -132531.64, 0.000, 0.000, 0.000, 03:58:28.823
199, -6877.27, -7025.06, -6983.47, -6926.49, -85532.77, -90554.58, -109311.05, -131343.98, -6591.82, -6473.91, -6720.74, -6467.81, -87295.77, -89256.59, -95653.80, -132531.64, 0.000, 0.000, 0.000, 03:58:28.825
200, -6877.27, -7025.06, -6983.47, -6926.49, -85532.77, -90554.58, -109311.05, -131343.98, -6609.28, -6479.32, -6722.64, -6464.82, -87308.73, -89250.53, -95651.52, -132528.50, 0.000, 0.000, 0.000, 03:58:28.829
201, -6892.65, -7030.07, -6987.38, -6925.35, -85554.02, -90551.72, -109313.75, -131339.05, -6609.28, -6479.32, -6722.64, -6464.82, -87308.73, -89250.53, -95651.52, -132528.50, 0.000, 0.000, 0.000, 03:58:28.832
202, -6892.65, -7030.07, -6987.38, -6925.35, -85554.02, -90551.72, -109313.75, -131339.05, -6599.15, -6479.84, -6723.25, -6469.22, -87302.31, -89256.88, -95655.36, -132532.83, 0.000, 0.000, 0.000, 03:58:28.836
203, -6881.72, -7027.97, -6987.76, -6929.20, -85539.36, -90559.25, -109314.45, -131347.00, -6599.15, -6479.84, -6723.25, -6469.22, -87302.31, -89256.88, -95655.36, -132532.83, 0.020, 0.938, 0.290, 03:58:28.840
204, -6881.72, -7027.97, -6987.76, -6929.20, -85539.36, -90559.25, -109314.45, -131347.00, -6614.42, -6486.77, -6726.42, -6467.81, -87313.89, -89251.61, -95654.91, -132531.48, 0.000, 0.000, 0.000, 03:58:28.845
205, -6901.12, -7032.75, -6990.17, -6926.56, -85564.27, -90554.27, -109316.88, -131338.89, -6614.42, -6486.77, -6726.42, -6467.81, -87313.89, -89251.61, -95654.91, -132531.48, 0.000, 0.000, 0.000, 03:58:28.847
206, -6901.12, -7032.75, -6990.17, -6926.56, -85564.27, -90554.27, -109316.88, -131338.89, -6607.62, -6487.01, -6724.70, -6468.71, -87308.28, -89254.02, -95654.58, -132532.09, 0.000, 0.000, 0.000, 03:58:28.851
207, -6885.16, -7028.15, -6987.04, -6928.35, -85543.79, -90557.93, -109314.27, -131345.64, -6607.62, -6487.01, -6724.70, -6468.71, -87308.28, -89254.02, -95654.58, -132532.09, 0.000, 0.000, 0.000, 03:58:28.856
208, -6885.16, -7028.15, -6987.04, -6928.35, -85543.79, -90557.93, -109314.27, -131345.64, -6616.05, -6489.81, -6725.57, -6465.76, -87314.29, -89248.50, -95653.15, -132529.34, 0.000, 0.000, 0.000, 03:58:28.859
209, -6905.68, -7033.69, -6990.91, -6925.62, -85571.52, -90548.88, -109317.20, -131336.70, -6616.05, -6489.81, -6725.57, -6465.76, -87314.29, -89248.50, -95653.15, -132529.34, 0.000, 0.000, 0.000, 03:58:28.864
210, -6905.68, -7033.69, -6990.91, -6925.62, -85571.52, -90548.88, -109317.20, -131336.70, -6613.97, -6491.95, -6726.33, -6467.95, -87313.96, -89252.26, -95654.13, -132531.67, 0.000, 0.000, 0.000, 03:58:28.869
211, -6889.34, -7030.74, -6989.61, -6929.85, -85550.56, -90556.39, -109316.73, -131347.31, -6613.97, -6491.95, -6726.33, -6467.95, -87313.96, -89252.26, -95654.13, -132531.67, 0.000, 0.000, 0.000, 03:58:28.872
212, -6889.34, -7030.74, -6989.61, -6929.85, -85550.56, -90556.39, -109316.73, -131347.31, -6616.70, -6490.48, -6725.95, -6465.55, -87315.34, -89248.41, -95653.26, -132529.33, 0.000, 0.000, 0.000, 03:58:28.877
213, -6904.99, -7030.61, -6989.19, -6921.87, -85573.36, -90545.84, -109314.48, -131330.78, -6616.70, -6490.48, -6725.95, -6465.55, -87315.34, -89248.41, -95653.26, -132529.33, 0.008, 0.930, 0.268, 03:58:28.880
214, -6904.99, -7030.61, -6989.19, -6921.87, -85573.36, -90545.84, -109314.48, -131330.78, -6613.93, -6488.87, -6722.51, -6463.03, -87313.94, -89246.83, -95649.28, -132526.50, 0.000, 0.000, 0.000, 03:58:28.885
215, -6887.09, -7027.16, -6989.06, -6926.89, -85551.23, -90558.83, -109314.22, -131340.30, -6613.93, -6488.87, -6722.51, -6463.03, -87313.94, -89246.83, -95649.28, -132526.50, 0.000, 0.000, 0.000, 03:58:28.888
216, -6887.09, -7027.16, -6989.06, -6926.89, -85551.23, -90558.83, -109314.22, -131340.30, -6612.47, -6487.55, -6725.26, -6466.14, -87314.70, -89249.40, -95653.84, -132529.30, 0.000, 0.000, 0.000, 03:58:28.891
217, -6905.37, -7029.87, -6990.60, -6921.46, -85576.49, -90551.80, -109315.34, -131326.64, -6612.47, -6487.55, -6725.26, -6466.14, -87314.70, -89249.40, -95653.84, -132529.30, 0.000, 0.000, 0.000, 03:58:28.897
218, -6905.37, -7029.87, -6990.60, -6921.46, -85576.49, -90551.80, -109315.34, -131326.64, -6615.74, -6483.97, -6720.48, -6460.64, -87314.65, -89244.74, -95646.71, -132523.20, 0.000, 0.000, 0.000, 03:58:28.901
219, -6886.59, -7025.18, -6986.66, -6923.74, -85552.30, -90557.91, -109311.98, -131333.39, -6615.74, -6483.97, -6720.48, -6460.64, -87314.65, -89244.74, -95646.71, -132523.20, 0.000, 0.000, 0.000, 03:58:28.903
220, -6886.59, -7025.18, -6986.66, -6923.74, -85552.30, -90557.91, -109311.98, -131333.39, -6608.58, -6479.30, -6722.62, -6464.08, -87311.19, -89249.41, -95652.27, -132526.80, 0.000, 0.000, 0.000, 03:58:28.908
221, -6903.16, -7028.95, -6989.73, -6920.48, -85574.45, -90547.49, -109313.75, -131323.42, -6608.58, -6479.30, -6722.62, -6464.08, -87311.19, -89249.41, -95652.27, -132526.80, 0.000, 0.000, 0.000, 03:58:28.912
222, -6903.16, -7028.95, -6989.73, -6920.48, -85574.45, -90547.49, -109313.75, -131323.42, -6619.38, -6481.71, -6722.82, -6461.98, -87318.47, -89247.63, -95649.03, -132524.69, 0.000, 0.000, 0.000, 03:58:28.916
223, -6889.23, -7028.33, -6989.35, -6926.11, -85556.30, -90555.74, -109314.24, -131336.20, -6619.38, -6481.71, -6722.82, -6461.98, -87318.47, -89247.63, -95649.03, -132524.69, 0.006, 0.940, 0.280, 03:58:28.920
224, -6889.23, -7028.33, -6989.35, -6926.11, -85556.30, -90555.74, -109314.24, -131336.20, -6605.99, -6476.80, -6723.72, -6465.64, -87309.55, -89252.21, -95654.60, -132528.67, 0.000, 0.000, 0.000, 03:58:28.924
225, -6900.41, -7030.09, -6991.18, -6923.48, -85571.41, -90549.23, -109315.31, -131329.88, -6605.99, -6476.80, -6723.72, -6465.64, -87309.55, -89252.21, -95654.60, -132528.67, 0.000, 0.000, 0.000, 03:58:28.929
226, -6900.41, -7030.09, -6991.18, -6923.48, -85571.41, -90549.23, -109315.31, -131329.88, -6617.75, -6483.26, -6724.08, -6463.36, -87318.18, -89247.80, -95651.59, -132526.14, 0.000, 0.000, 0.000, 03:58:28.931
227, -6885.48, -7026.83, -6987.98, -6926.51, -85552.10, -90556.57, -109313.64, -131339.94, -6617.75, -6483.26, -6724.08, -6463.36, -87318.18, -89247.80, -95651.59, -132526.14, 0.000, 0.000, 0.000, 03:58:28.936
228, -6885.48, -7026.83, -6987.98, -6926.51, -85552.10, -90556.57, -109313.64, -131339.94, -6601.81, -6480.93, -6725.21, -6469.00, -87306.31, -89253.84, -95658.80, -132531.67, 0.000, 0.000, 0.000, 03:58:28.942
229, -6895.56, -7030.29, -6990.89, -6926.40, -85564.24, -90552.75, -109316.66, -131338.83, -6601.81, -6480.93, -6725.21, -6469.00, -87306.31, -89253.84, -95658.80, -132531.67, 0.000, 0.000, 0.000, 03:58:28.945
230, -6895.56, -7030.29, -6990.89, -6926.40, -85564.24, -90552.75, -109316.66, -131338.83, -6617.75, -6490.23, -6726.91, -6466.63, -87317.73, -89248.66, -95655.72, -132528.97, 0.000, 0.000, 0.000, 03:58:28.947
231, -6887.91, -7030.94, -6990.17, -6930.65, -85553.53, -90557.24, -109317.26, -131348.69, -6617.75, -6490.23, -6726.91, -6466.63, -87317.73, -89248.66, -95655.72, -132528.97, 0.000, 0.000, 0.000, 03:58:28.953
232, -6887.91, -7030.94, -6990.17, -6930.65, -85553.53, -90557.24, -109317.26, -131348.69, -6599.73, -6487.01, -6728.39, -6473.18, -87305.62, -89257.22, -95663.92, -132535.95, 0.000, 0.000, 0.000, 03:58:28.956
233, -6890.57, -7030.85, -6991.22, -6929.87, -85557.47, -90551.32, -109318.40, -131347.41, -6599.73, -6487.01, -6728.39, -6473.18, -87305.62, -89257.22, -95663.92, -132535.95, 0.022, 0.932, 0.298, 03:58:28.960
234, -6890.57, -7030.85, -6991.22, -6929.87, -85557.47, -90551.32, -109318.40, -131347.41, -6617.46, -6492.40, -6729.53, -6469.20, -87317.69, -89251.23, -95659.90, -132532.20, 0.000, 0.000, 0.000, 03:58:28.964
235, -6888.56, -7032.48, -6990.42, -6932.77, -85554.48, -90554.98, -109319.41, -131353.47, -6617.46, -6492.40, -6729.53, -6469.20, -87317.69, -89251.23, -95659.90, -132532.20, 0.000, 0.000, 0.000, 03:58:28.968
236, -6888.56, -7032.48, -6990.42, -6932.77, -85554.48, -90554.98, -109319.41, -131353.47, -6597.30, -6486.25, -6729.84, -6474.72, -87304.73, -89260.34, -95666.58, -132538.05, 0.000, 0.000, 0.000, 03:58:28.972
237, -6887.18, -7031.43, -6992.34, -6932.46, -85553.67, -90554.54, -109319.59, -131351.59, -6597.30, -6486.25, -6729.84, -6474.72, -87304.73, -89260.34, -95666.58, -132538.05, 0.000, 0.000, 0.000, 03:58:28.975
238, -6887.18, -7031.43, -6992.34, -6932.46, -85553.67, -90554.54, -109319.59, -131351.59, -6614.37, -6488.85, -6729.17, -6469.29, -87316.30, -89252.50, -95660.92, -132532.30, 0.000, 0.000, 0.000, 03:58:28.980
239, -6886.37, -7029.94, -6990.96, -6930.96, -85554.61, -90556.15, -109317.98, -131348.48, -6614.37, -6488.85, -6729.17, -6469.29, -87316.30, -89252.50, -95660.92, -132532.30, 0.000, 0.000, 0.000, 03:58:28.984
240, -6886.37, -7029.94, -6990.96, -6930.96, -85554.61, -90556.15, -109317.98, -131348.48, -6594.97, -6481.47, -6728.43, -6474.05, -87303.43, -89260.68, -95665.69, -132536.66, 0.000, 0.000, 0.000, 03:58:28.987
241, -6882.82, -7028.68, -6990.64, -6931.43, -85550.16, -90559.54, -109318.42, -131348.38, -6594.97, -6481.47, -6728.43, -6474.05, -87303.43, -89260.68, -95665.69, -132536.66, 0.000, 0.000, 0.000, 03:58:28.992
242, -6882.82, -7028.68, -6990.64, -6931.43, -85550.16, -90559.54, -109318.42, -131348.38, -6611.44, -6482.50, -6727.07, -6467.37, -87314.18, -89251.52, -95658.94, -132529.56, 0.000, 0.000, 0.000, 03:58:28.996
243, -6885.66, -7025.35, -6986.82, -6925.75, -85556.13, -90554.42, -109314.42, -131339.00, -6611.44, -6482.50, -6727.07, -6467.37, -87314.18, -89251.52, -95658.94, -132529.56, 0.020, 0.946, 0.304, 03:58:29.000
244, -6885.66, -7025.35, -6986.82, -6925.75, -85556.13, -90554.42, -109314.42, -131339.00, -6589.76, -6472.39, -6721.68, -6466.69, -87298.76, -89254.85, -95658.42, -132529.28, 0.000, 0.000, 0.000, 03:58:29.003
245, -6873.81, -7018.94, -6984.23, -6923.63, -85542.36, -90553.10, -109310.63, -131337.42, -6589.76, -6472.39, -6721.68, -6466.69, -87298.76, -89254.85, -95658.42, -132529.28, 0.000, 0.000, 0.000, 03:58:29.009
246, -6873.81, -7018.94, -6984.23, -6923.63, -85542.36, -90553.10, -109310.63, -131337.42, -6607.69, -6476.82, -6721.95, -6461.53, -87311.03, -89247.36, -95654.04, -132524.36, 0.000, 0.000, 0.000, 03:58:29.012
247, -6891.42, -7026.63, -6989.26, -6925.31, -85565.25, -90552.79, -109315.70, -131335.72, -6607.69, -6476.82, -6721.95, -6461.53, -87311.03, -89247.36, -95654.04, -132524.36, 0.000, 0.000, 0.000, 03:58:29.014
248, -6891.42, -7026.63, -6989.26, -6925.31, -85565.25, -90552.79, -109315.70, -131335.72, -6598.44, -6477.76, -6724.61, -6467.95, -87306.49, -89256.55, -95660.01, -132531.02, 0.000, 0.000, 0.000, 03:58:29.020
249, -6881.05, -7023.90, -6989.48, -6928.10, -85551.61, -90557.51, -109315.63, -131341.39, -6598.44, -6477.76, -6724.61, -6467.95, -87306.49, -89256.55, -95660.01, -132531.02, 0.000, 0.000, 0.000, 03:58:29.024
250, -6881.05, -7023.90, -6989.48, -6928.10, -85551.61, -90557.51, -109315.63, -131341.39, -6614.22, -6482.21, -6725.30, -6463.65, -87316.53, -89248.86, -95656.43, -132526.64, 0.000, 0.000, 0.000, 03:58:29.028
251, -6896.94, -7026.96, -6990.60, -6923.94, -85574.01, -90550.49, -109315.90, -131332.19, -6614.22, -6482.21, -6725.30, -6463.65, -87316.53, -89248.86, -95656.43, -132526.64, 0.000, 0.000, 0.000, 03:58:29.032
252, -6896.94, -7026.96, -6990.60, -6923.94, -85574.01, -90550.49, -109315.90, -131332.19, -6604.72, -6482.68, -6723.74, -6465.22, -87310.76, -89252.30, -95656.57, -132527.91, 0.000, 0.000, 0.000, 03:58:29.036
253, -6884.31, -7024.17, -6989.06, -6927.43, -85557.18, -90556.55, -109315.80, -131341.38, -6604.72, -6482.68, -6723.74, -6465.22, -87310.76, -89252.30, -95656.57, -132527.91, 0.004, 0.942, 0.292, 03:58:29.040
254, -6884.31, -7024.17, -6989.06, -6927.43, -85557.18, -90556.55, -109315.80, -131341.38, -6615.92, -6486.79, -6724.03, -6461.53, -87317.80, -89245.35, -95653.68, -132524.06, 0.000, 0.000, 0.000, 03:58:29.044
255, -6900.59, -7024.66, -6987.60, -6919.94, -85580.06, -90544.84, -109313.77, -131327.77, -6615.92, -6486.79, -6724.03, -6461.53, -87317.80, -89245.35, -95653.68, -132524.06, 0.000, 0.000, 0.000, 03:58:29.048
0, -6900.59, -7024.66, -6987.60, -6919.94, -85580.06, -90544.84, -109313.77, -131327.77, -6608.09, -6484.02, -6718.29, -6457.69, -87310.34, -89242.78, -95648.48, -132520.36, 0.000, 0.000, 0.000, 03:58:29.052
1, -6882.62, -7018.87, -6983.47, -6921.33, -85557.36, -90549.30, -109310.40, -131334.64, -6608.09, -6484.02, -6718.29, -6457.69, -87310.34, -89242.78, -95648.48, -132520.36, 0.000, 0.000, 0.000, 03:58:29.055
2, -6882.62, -7018.87, -6983.47, -6921.33, -85557.36, -90549.30, -109310.40, -131334.64, -6615.40, -6488.17, -6721.86, -6458.47, -87317.58, -89242.22, -95650.69, -132521.31, 0.000, 0.000, 0.000, 03:58:29.060
3, -6906.44, -7026.83, -6989.48, -6920.59, -85588.94, -90544.68, -109315.96, -131327.52, -6615.40, -6488.17, -6721.86, -6458.47, -87317.58, -89242.22, -95650.69, -132521.31, 0.000, 0.000, 0.000, 03:58:29.064
4, -6906.44, -7026.83, -6989.48, -6920.59, -85588.94, -90544.68, -109315.96, -131327.52, -6617.73, -6489.34, -6722.06, -6459.41, -87318.92, -89244.97, -95649.99, -132522.19, 0.000, 0.000, 0.000, 03:58:29.068
5, -6890.55, -7024.21, -6989.14, -6926.02, -85568.40, -90555.97, -109316.39, -131337.80, -6617.73, -6489.34, -6722.06, -6459.41, -87318.92, -89244.97, -95649.99, -132522.19, 0.000, 0.000, 0.000, 03:58:29.072
6, -6890.55, -7024.21, -6989.14, -6926.02, -85568.40, -90555.97, -109316.39, -131337.80, -6619.71, -6488.55, -6725.35, -6462.20, -87321.96, -89247.25, -95654.29, -132524.98, 0.004, 0.952, 0.308, 03:58:29.076
7, -6910.15, -7028.15, -6991.31, -6921.37, -85594.77, -90548.79, -109317.53, -131324.73, -6619.71, -6488.55, -6725.35, -6462.20, -87321.96, -89247.25, -95654.29, -132524.98, 0.000, 0.000, 0.000, 03:58:29.080
8, -6910.15, -7028.15, -6991.31, -6921.37, -85594.77, -90548.79, -109317.53, -131324.73, -6620.81, -6485.54, -6720.52, -6457.33, -87321.65, -89243.83, -95647.54, -132519.28, 0.000, 0.000, 0.000, 03:58:29.083
9, -6889.88, -7022.69, -6987.92, -6923.01, -85570.68, -90555.36, -109313.93, -131332.00, -6620.81, -6485.54, -6720.52, -6457.33, -87321.65, -89243.83, -95647.54, -132519.28, 0.000, 0.000, 0.000, 03:58:29.087
10, -6889.88, -7022.69, -6987.92, -6923.01, -85570.68, -90555.36, -109313.93, -131332.00, -6615.20, -6481.36, -6721.97, -6459.70, -87318.34, -89246.87, -95651.54, -132521.91, 0.000, 0.000, 0.000, 03:58:29.092
11, -6906.51, -7025.38, -6990.51, -6918.94, -85593.95, -90546.78, -109315.34, -131320.88, -6615.20, -6481.36, -6721.97, -6459.70, -87318.34, -89246.87, -95651.54, -132521.91, 0.000, 0.000, 0.000, 03:58:29.096
12, -6906.51, -7025.38, -6990.51, -6918.94, -85593.95, -90546.78, -109315.34, -131320.88, -6623.00, -6483.50, -6721.57, -6457.62, -87324.71, -89245.02, -95648.16, -132519.69, 0.000, 0.000, 0.000, 03:58:29.100
13, -6894.42, -7026.05, -6991.04, -6926.16, -85576.94, -90558.58, -109317.23, -131333.06, -6623.00, -6483.50, -6721.57, -6457.62, -87324.71, -89245.02, -95648.16, -132519.69, 0.000, 0.000, 0.000, 03:58:29.103
14, -6894.42, -7026.05, -6991.04, -6926.16, -85576.94, -90558.58, -109317.23, -131333.06, -6616.81, -6482.56, -6725.48, -6463.68, -87320.69, -89252.14, -95655.92, -132525.72, 0.000, 0.000, 0.000, 03:58:29.107
15, -6908.52, -7028.01, -6992.56, -6922.11, -85595.40, -90550.16, -109317.98, -131323.95, -6616.81, -6482.56, -6725.48, -6463.68, -87320.69, -89252.14, -95655.92, -132525.72, 0.000, 0.000, 0.000, 03:58:29.112
16, -6908.52, -7028.01, -6992.56, -6922.11, -85595.40, -90550.16, -109317.98, -131323.95, -6625.97, -6485.02, -6722.26, -6457.73, -87326.48, -89245.13, -95648.86, -132519.67, 0.014, 0.946, 0.304, 03:58:29.115
17, -6892.41, -7024.17, -6988.52, -6924.37, -85575.08, -90554.54, -109315.12, -131332.61, -6625.97, -6485.02, -6722.26, -6457.73, -87326.48, -89245.13, -95648.86, -132519.67, 0.000, 0.000, 0.000, 03:58:29.120
18, -6892.41, -7024.17, -6988.52, -6924.37, -85575.08, -90554.54, -109315.12, -131332.61, -6609.59, -6480.73, -6722.94, -6462.18, -87315.05, -89250.22, -95655.07, -132524.41, 0.000, 0.000, 0.000, 03:58:29.124
19, -6900.97, -7025.67, -6989.88, -6922.18, -85586.97, -90547.25, -109316.03, -131328.47, -6609.59, -6480.73, -6722.94, -6462.18, -87315.05, -89250.22, -95655.07, -132524.41, 0.000, 0.000, 0.000, 03:58:29.129
20, -6900.97, -7025.67, -6989.88, -6922.18, -85586.97, -90547.25, -109316.03, -131328.47, -6622.46, -6486.39, -6721.39, -6457.11, -87322.98, -89242.71, -95648.88, -132518.89, 0.000, 0.000, 0.000, 03:58:29.132
21, -6889.30, -7023.36, -6985.50, -6923.83, -85571.70, -90550.47, -109313.64, -131337.08, -6622.46, -6486.39, -6721.39, -6457.11, -87322.98, -89242.71, -95648.88, -132518.89, 0.000, 0.000, 0.000, 03:58:29.136
22, -6889.30, -7023.36, -6985.50, -6923.83, -85571.70, -90550.47, -109313.64, -131337.08, -6603.64, -6483.91, -6722.49, -6463.19, -87310.90, -89250.47, -95656.55, -132525.25, 0.000, 0.000, 0.000, 03:58:29.140
23, -6893.37, -7023.70, -6987.54, -6923.14, -85577.85, -90546.51, -109315.09, -131335.89, -6603.64, -6483.91, -6722.49, -6463.19, -87310.90, -89250.47, -95656.55, -132525.25, 0.000, 0.000, 0.000, 03:58:29.143
24, -6893.37, -7023.70, -6987.54, -6923.14, -85577.85, -90546.51, -109315.09, -131335.89, -6619.31, -6490.07, -6722.31, -6458.76, -87321.38, -89243.45, -95651.54, -132520.81, 0.000, 0.000, 0.000, 03:58:29.148
25, -6887.67, -7023.16, -6985.28, -6924.88, -85570.50, -90551.05, -109314.27, -131340.97, -6619.31, -6490.07, -6722.31, -6458.76, -87321.38, -89243.45, -95651.54, -132520.81, 0.000, 0.000, 0.000, 03:58:29.152
26, -6887.67, -7023.16, -6985.28, -6924.88, -85570.50, -90551.05, -109314.27, -131340.97, -6597.74, -6483.57, -6721.24, -6463.12, -87306.80, -89250.55, -95656.88, -132525.17, 0.024, 0.954, 0.316, 03:58:29.156
27, -6884.94, -7019.21, -6983.00, -6921.35, -85567.93, -90546.94, -109311.76, -131335.84, -6597.74, -6483.57, -6721.24, -6463.12, -87306.80, -89250.55, -95656.88, -132525.17, 0.000, 0.000, 0.000, 03:58:29.159
28, -6884.94, -7019.21, -6983.00, -6921.35, -85567.93, -90546.94, -109311.76, -131335.84, -6611.98, -6483.55, -6717.86, -6454.96, -87315.14, -89240.27, -95648.43, -132516.92, 0.000, 0.000, 0.000, 03:58:29.163
29, -6884.38, -7019.34, -6982.08, -6922.13, -85567.93, -90549.17, -109311.60, -131336.67, -6611.98, -6483.55, -6717.86, -6454.96, -87315.14, -89240.27, -95648.43, -132516.92, 0.000, 0.000, 0.000, 03:58:29.167
30, -6884.38, -7019.34, -6982.08, -6922.13, -85567.93, -90549.17, -109311.60, -131336.67, -6595.28, -6478.85, -6720.61, -6463.19, -87305.42, -89252.62, -95657.26, -132525.28, 0.000, 0.000, 0.000, 03:58:29.172
31, -6881.63, -7018.58, -6982.66, -6922.45, -85564.64, -90549.35, -109311.83, -131336.36, -6595.28, -6478.85, -6720.61, -6463.19, -87305.42, -89252.62, -95657.26, -132525.28, 0.000, 0.000, 0.000, 03:58:29.176
32, -6881.63, -7018.58, -6982.66, -6922.45, -85564.64, -90549.35, -109311.83, -131336.36, -6610.62, -6478.83, -6718.20, -6455.36, -87315.05, -89243.00, -95649.55, -132517.31, 0.000, 0.000, 0.000, 03:58:29.180
33, -6884.56, -7018.40, -6982.57, -6920.52, -85571.05, -90547.63, -109310.82, -131332.09, -6610.62, -6478.83, -6718.20, -6455.36, -87315.05, -89243.00, -95649.55, -132517.31, 0.000, 0.000, 0.000, 03:58:29.184
34, -6884.56, -7018.40, -6982.57, -6920.52, -85571.05, -90547.63, -109310.82, -131332.09, -6592.02, -6472.75, -6717.64, -6460.28, -87303.48, -89251.49, -95654.53, -132522.34, 0.000, 0.000, 0.000, 03:58:29.187
35, -6875.80, -7014.45, -6981.95, -6921.04, -85560.84, -90550.49, -109310.06, -131333.17, -6592.02, -6472.75, -6717.64, -6460.28, -87303.48, -89251.49, -95654.53, -132522.34, 0.000, 0.000, 0.000, 03:58:29.192
36, -6875.80, -7014.45, -6981.95, -6921.04, -85560.84, -90550.49, -109310.06, -131333.17, -6609.75, -6476.95, -6718.58, -6455.92, -87315.97, -89244.34, -95650.46, -132517.78, 0.008, 0.944, 0.290, 03:58:29.195
37, -6888.07, -7018.40, -6983.94, -6919.92, -85577.41, -90551.02, -109311.83, -131327.56, -6609.75, -6476.95, -6718.58, -6455.92, -87315.97, -89244.34, -95650.46, -132517.78, 0.000, 0.000, 0.000, 03:58:29.199
38, -6888.07, -7018.40, -6983.94, -6919.92, -85577.41, -90551.02, -109311.83, -131327.56, -6595.28, -6473.71, -6717.88, -6459.34, -87306.36, -89250.78, -95653.59, -132521.45, 0.000, 0.000, 0.000, 03:58:29.203
39, -6876.85, -7014.42, -6983.56, -6921.44, -85563.26, -90554.76, -109310.71, -131331.36, -6595.28, -6473.71, -6717.88, -6459.34, -87306.36, -89250.78, -95653.59, -132521.45, 0.000, 0.000, 0.000, 03:58:29.208
40, -6876.85, -7014.42, -6983.56, -6921.44, -85563.26, -90554.76, -109310.71, -131331.36, -6609.66, -6477.02, -6718.13, -6454.69, -87316.88, -89243.00, -95649.70, -132516.89, 0.000, 0.000, 0.000, 03:58:29.211
41, -6892.29, -7017.58, -6984.23, -6918.02, -85583.71, -90547.12, -109311.43, -131323.09, -6609.66, -6477.02, -6718.13, -6454.69, -87316.88, -89243.00, -95649.70, -132516.89, 0.000, 0.000, 0.000, 03:58:29.216
42, -6892.29, -7017.58, -6984.23, -6918.02, -85583.71, -90547.12, -109311.43, -131323.09, -6602.93, -6476.95, -6718.17, -6457.69, -87311.16, -89248.39, -95651.72, -132519.86, 0.000, 0.000, 0.000, 03:58:29.219
43, -6881.41, -7016.39, -6983.60, -6921.71, -85568.89, -90550.98, -109311.54, -131331.94, -6602.93, -6476.95, -6718.17, -6457.69, -87311.16, -89248.39, -95651.72, -132519.86, 0.000, 0.000, 0.000, 03:58:29.223
44, -6881.41, -7016.39, -6983.60, -6921.71, -85568.89, -90550.98, -109311.54, -131331.94, -6614.04, -6480.73, -6718.76, -6453.62, -87319.68, -89241.66, -95648.81, -132516.09, 0.000, 0.000, 0.000, 03:58:29.227
45, -6900.01, -7020.55, -6985.77, -6918.16, -85594.46, -90541.64, -109312.99, -131324.08, -6614.04, -6480.73, -6718.76, -6453.62, -87319.68, -89241.66, -95648.81, -132516.09, 0.000, 0.000, 0.000, 03:58:29.231
46, -6900.01, -7020.55, -6985.77, -6918.16, -85594.46, -90541.64, -109312.99, -131324.08, -6611.58, -6485.20, -6720.25, -6457.58, -87318.59, -89247.07, -95651.41, -132520.06, 0.006, 0.946, 0.294, 03:58:29.236
47, -6886.06, -7018.36, -6986.66, -6923.05, -85576.51, -90550.36, -109313.68, -131334.38, -6611.58, -6485.20, -6720.25, -6457.58, -87318.59, -89247.07, -95651.41, -132520.06, 0.000, 0.000, 0.000, 03:58:29.240
48, -6886.06, -7018.36, -6986.66, -6923.05, -85576.51, -90550.36, -109313.68, -131334.38, -6619.13, -6487.64, -6720.28, -6454.76, -87323.48, -89241.35, -95649.39, -132516.83, 0.000, 0.000, 0.000, 03:58:29.243
49, -6906.09, -7021.87, -6987.78, -6918.31, -85603.34, -90543.74, -109314.78, -131323.22, -6619.13, -6487.64, -6720.28, -6454.76, -87323.48, -89241.35, -95649.39, -132516.83, 0.000, 0.000, 0.000, 03:58:29.247
50, -6906.09, -7021.87, -6987.78, -6918.31, -85603.34, -90543.74, -109314.78, -131323.22, -6616.07, -6487.93, -6718.26, -6454.31, -87321.80, -89241.73, -95647.02, -132515.86, 0.000, 0.000, 0.000, 03:58:29.252
51, -6888.02, -7016.68, -6984.07, -6920.57, -85580.78, -90552.19, -109312.48, -131330.83, -6616.07, -6487.93, -6718.26, -6454.31, -87321.80, -89241.73, -95647.02, -132515.86, 0.000, 0.000, 0.000, 03:58:29.255
52, -6888.02, -7016.68, -6984.07, -6920.57, -85580.78, -90552.19, -109312.48, -131330.83, -6619.89, -6487.35, -6719.94, -6454.40, -87324.10, -89241.02, -95648.38, -132515.98, 0.000, 0.000, 0.000, 03:58:29.261
53, -6908.05, -7021.40, -6988.41, -6916.41, -85608.54, -90544.37, -109314.35, -131318.11, -6619.89, -6487.35, -6719.94, -6454.40, -87324.10, -89241.02, -95648.38, -132515.98, 0.000, 0.000, 0.000, 03:58:29.264
54, -6908.05, -7021.40, -6988.41, -6916.41, -85608.54, -90544.37, -109314.35, -131318.11, -6620.85, -6486.12, -6717.24, -6452.01, -87325.29, -89240.45, -95644.30, -132513.19, 0.000, 0.000, 0.000, 03:58:29.268
55, -6889.41, -7016.64, -6984.20, -6918.89, -85584.98, -90550.73, -109311.29, -131325.75, -6620.85, -6486.12, -6717.24, -6452.01, -87325.29, -89240.45, -95644.30, -132513.19, 0.000, 0.000, 0.000, 03:58:29.271
56, -6889.41, -7016.64, -6984.20, -6918.89, -85584.98, -90550.73, -109311.29, -131325.75, -6615.27, -6479.84, -6716.86, -6451.41, -87321.49, -89240.66, -95645.52, -132512.83, 0.000, 0.944, 0.288, 03:58:29.275
57, -6907.52, -7020.17, -6986.64, -6914.85, -85610.20, -90542.42, -109313.28, -131314.42, -6615.27, -6479.84, -6716.86, -6451.41, -87321.49, -89240.66, -95645.52, -132512.83, 0.000, 0.000, 0.000, 03:58:29.279
58, -6907.52, -7020.17, -6986.64, -6914.85, -85610.20, -90542.42, -109313.28, -131314.42, -6623.76, -6481.94, -6716.99, -6450.44, -87327.23, -89240.45, -95642.82, -132511.64, 0.000, 0.000, 0.000, 03:58:29.283
59, -6890.04, -7016.79, -6984.99, -6918.42, -85588.58, -90551.85, -109311.05, -131322.27, -6623.76, -6481.94, -6716.99, -6450.44, -87327.23, -89240.45, -95642.82, -132511.64, 0.000, 0.000, 0.000, 03:58:29.288
60, -6890.04, -7016.79, -6984.99, -6918.42, -85588.58, -90551.85, -109311.05, -131322.27, -6614.02, -6479.23, -6719.11, -6454.74, -87323.14, -89245.38, -95648.70, -132515.69, 0.000, 0.000, 0.000, 03:58:29.291
61, -6907.85, -7022.60, -6990.96, -6918.00, -85612.16, -90548.48, -109315.43, -131315.27, -6614.02, -6479.23, -6719.11, -6454.74, -87323.14, -89245.38, -95648.70, -132515.69, 0.000, 0.000, 0.000, 03:58:29.294
