%OpenBCI Raw EEG Data
%
%Sample Rate = 250.0 Hz
%First Column = SampleIndex
%Last Column = Timestamp 
%Other Columns = EEG data in microvolts followed by Accel Data (in G) interleaved with Aux Data
0, 0.00, 0.00, 0.00, 0.00, 0.00, 0.00, 0.00, 0.00, -20860.08, -19723.94, -22379.88, -13691.07, -49688.69, -51984.72, -51993.80, -77894.33, 0.030, 0.954, 0.284, 03:43:26.103
1, -20.85, -26.51, -18.55, -22.17, -24.94, -14.93, -16.61, -22.08, -20860.08, -19723.94, -22379.88, -13691.07, -49688.69, -51984.72, -51993.80, -77894.33, 0.000, 0.000, 0.000, 03:43:26.106
2, -20.85, -26.51, -18.55, -22.17, -24.94, -14.93, -16.61, -22.08, -18.95, -23.42, -14.04, -24.07, -25.30, -24.83, -21.28, -18.17, 0.000, 0.000, 0.000, 03:43:26.110
3, -20.85, -26.51, -18.62, -22.04, -25.26, -14.75, -16.65, -22.06, -18.95, -23.42, -14.04, -24.07, -25.30, -24.83, -21.28, -18.17, 0.000, 0.000, 0.000, 03:43:26.114
4, -20.85, -26.51, -18.62, -22.04, -25.26, -14.75, -16.65, -22.06, -18.84, -23.63, -14.04, -24.14, -25.39, -24.94, -21.41, -18.10, 0.000, 0.000, 0.000, 03:43:26.118
5, -20.76, -26.40, -18.44, -22.15, -24.97, -14.84, -16.79, -21.97, -18.84, -23.63, -14.04, -24.14, -25.39, -24.94, -21.41, -18.10, 0.000, 0.000, 0.000, 03:43:26.123
6, -20.76, -26.40, -18.44, -22.15, -24.97, -14.84, -16.79, -21.97, -19.09, -23.45, -13.81, -23.92, -25.39, -24.94, -20.99, -18.10, 0.020, 0.960, 0.332, 03:43:26.127
7, -20.70, -26.22, -18.35, -21.95, -24.97, -14.95, -16.72, -22.17, -19.09, -23.45, -13.81, -23.92, -25.39, -24.94, -20.99, -18.10, 0.000, 0.000, 0.000, 03:43:26.131
8, -20.70, -26.22, -18.35, -21.95, -24.97, -14.95, -16.72, -22.17, -18.78, -23.47, -13.86, -23.94, -25.35, -24.83, -21.21, -18.13, 0.000, 0.000, 0.000, 03:43:26.136
9, -20.74, -26.60, -18.51, -21.93, -25.12, -15.00, -16.94, -22.24, -18.78, -23.47, -13.86, -23.94, -25.35, -24.83, -21.21, -18.13, 0.000, 0.000, 0.000, 03:43:26.139
10, -20.74, -26.60, -18.51, -21.93, -25.12, -15.00, -16.94, -22.24, -18.95, -23.29, -14.10, -24.10, -25.55, -24.77, -21.21, -18.06, 0.000, 0.000, 0.000, 03:43:26.143
11, -20.90, -26.84, -18.48, -22.11, -25.12, -14.98, -16.90, -22.04, -18.95, -23.29, -14.10, -24.10, -25.55, -24.77, -21.21, -18.06, 0.000, 0.000, 0.000, 03:43:26.147
12, -20.90, -26.84, -18.48, -22.11, -25.12, -14.98, -16.90, -22.04, -19.09, -23.65, -13.88, -23.94, -25.48, -24.61, -21.35, -18.04, 0.000, 0.000, 0.000, 03:43:26.152
13, -20.81, -26.51, -18.66, -22.08, -24.86, -15.15, -16.76, -22.15, -19.09, -23.65, -13.88, -23.94, -25.48, -24.61, -21.35, -18.04, 0.000, 0.000, 0.000, 03:43:26.156
14, -20.81, -26.51, -18.66, -22.08, -24.86, -15.15, -16.76, -22.15, -18.95, -23.34, -13.95, -23.94, -25.32, -24.77, -21.26, -18.06, 0.000, 0.000, 0.000, 03:43:26.158
15, -20.88, -26.53, -18.60, -22.20, -24.90, -14.84, -16.70, -22.20, -18.95, -23.34, -13.95, -23.94, -25.32, -24.77, -21.26, -18.06, 0.000, 0.000, 0.000, 03:43:26.162
16, -20.88, -26.53, -18.60, -22.20, -24.90, -14.84, -16.70, -22.20, -18.80, -23.60, -13.68, -24.05, -25.26, -24.88, -21.08, -18.08, 0.028, 0.958, 0.302, 03:43:26.166
17, -20.74, -26.67, -18.64, -22.13, -24.99, -14.91, -16.85, -22.22, -18.80, -23.60, -13.68, -24.05, -25.26, -24.88, -21.08, -18.08, 0.000, 0.000, 0.000, 03:43:26.170
18, -20.74, -26.67, -18.64, -22.13, -24.99, -14.91, -16.85, -22.22, -18.82, -23.36, -13.81, -24.07, -25.32, -24.74, -21.01, -18.08, 0.000, 0.000, 0.000, 03:43:26.175
19, -20.68, -26.71, -18.53, -21.99, -24.94, -15.02, -16.67, -22.06, -18.82, -23.36, -13.81, -24.07, -25.32, -24.74, -21.01, -18.08, 0.000, 0.000, 0.000, 03:43:26.178
20, -20.68, -26.71, -18.53, -21.99, -24.94, -15.02, -16.67, -22.06, -18.84, -23.42, -13.93, -23.96, -25.24, -24.52, -20.99, -18.19, 0.000, 0.000, 0.000, 03:43:26.183
21, -20.68, -26.62, -18.75, -22.11, -24.79, -14.91, -16.70, -21.99, -18.84, -23.42, -13.93, -23.96, -25.24, -24.52, -20.99, -18.19, 0.000, 0.000, 0.000, 03:43:26.186
22, -20.68, -26.62, -18.75, -22.11, -24.79, -14.91, -16.70, -21.99, -18.71, -23.49, -13.86, -24.07, -25.57, -24.65, -21.01, -18.08, 0.000, 0.000, 0.000, 03:43:26.189
23, -20.68, -26.26, -18.69, -22.08, -25.08, -14.98, -16.88, -22.06, -18.71, -23.49, -13.86, -24.07, -25.57, -24.65, -21.01, -18.08, 0.000, 0.000, 0.000, 03:43:26.194
24, -20.68, -26.26, -18.69, -22.08, -25.08, -14.98, -16.88, -22.06, -18.71, -23.76, -13.86, -23.98, -25.12, -24.68, -21.17, -18.06, 0.000, 0.000, 0.000, 03:43:26.198
25, -20.47, -26.55, -18.60, -22.08, -24.97, -14.95, -16.67, -22.20, -18.71, -23.76, -13.86, -23.98, -25.12, -24.68, -21.17, -18.06, 0.000, 0.000, 0.000, 03:43:26.202
26, -20.47, -26.55, -18.60, -22.08, -24.97, -14.95, -16.67, -22.20, -18.95, -23.51, -13.93, -23.80, -25.26, -24.99, -21.26, -18.17, 0.024, 0.958, 0.314, 03:43:26.206
27, -20.72, -26.60, -18.62, -22.28, -24.99, -14.82, -16.81, -21.95, -18.95, -23.51, -13.93, -23.80, -25.26, -24.99, -21.26, -18.17, 0.000, 0.000, 0.000, 03:43:26.210
28, -20.72, -26.60, -18.62, -22.28, -24.99, -14.82, -16.81, -21.95, -18.80, -23.51, -13.75, -24.16, -25.44, -24.86, -21.39, -18.08, 0.000, 0.000, 0.000, 03:43:26.216
29, -20.76, -26.67, -18.55, -22.22, -25.03, -14.75, -16.65, -21.93, -18.80, -23.51, -13.75, -24.16, -25.44, -24.86, -21.39, -18.08, 0.000, 0.000, 0.000, 03:43:26.218
30, -20.76, -26.67, -18.55, -22.22, -25.03, -14.75, -16.65, -21.93, -18.69, -23.47, -13.90, -23.83, -25.32, -24.90, -21.17, -18.13, 0.000, 0.000, 0.000, 03:43:26.223
31, -20.65, -26.73, -18.73, -22.02, -25.06, -15.00, -16.65, -22.20, -18.69, -23.47, -13.90, -23.83, -25.32, -24.90, -21.17, -18.13, 0.000, 0.000, 0.000, 03:43:26.228
32, -20.65, -26.73, -18.73, -22.02, -25.06, -15.00, -16.65, -22.20, -18.95, -23.27, -13.99, -23.98, -25.15, -24.68, -21.12, -17.93, 0.000, 0.000, 0.000, 03:43:26.231
33, -20.65, -26.44, -18.44, -22.26, -25.06, -14.75, -16.63, -22.17, -18.95, -23.27, -13.99, -23.98, -25.15, -24.68, -21.12, -17.93, 0.000, 0.000, 0.000, 03:43:26.236
34, -20.65, -26.44, -18.44, -22.26, -25.06, -14.75, -16.63, -22.17, -18.93, -23.72, -14.01, -23.92, -25.44, -24.92, -21.14, -18.04, 0.000, 0.000, 0.000, 03:43:26.240
35, -20.81, -26.42, -18.42, -22.22, -24.97, -15.07, -16.76, -22.26, -18.93, -23.72, -14.01, -23.92, -25.44, -24.92, -21.14, -18.04, 0.000, 0.000, 0.000, 03:43:26.242
36, -20.81, -26.42, -18.42, -22.22, -24.97, -15.07, -16.76, -22.26, -18.75, -23.56, -14.04, -23.85, -25.53, -24.70, -21.12, -17.97, 0.024, 0.952, 0.296, 03:43:26.247
37, -20.81, -26.46, -18.48, -22.20, -24.92, -14.84, -16.85, -22.20, -18.75, -23.56, -14.04, -23.85, -25.53, -24.70, -21.12, -17.97, 0.000, 0.000, 0.000, 03:43:26.251
38, -20.81, -26.46, -18.48, -22.20, -24.92, -14.84, -16.85, -22.20, -18.91, -23.51, -13.90, -23.94, -25.53, -24.70, -21.10, -17.97, 0.000, 0.000, 0.000, 03:43:26.254
39, -20.88, -26.46, -18.60, -21.99, -24.92, -14.93, -16.65, -22.26, -18.91, -23.51, -13.90, -23.94, -25.53, -24.70, -21.10, -17.97, 0.000, 0.000, 0.000, 03:43:26.261
40, -20.88, -26.46, -18.60, -21.99, -24.92, -14.93, -16.65, -22.26, -18.91, -23.11, -14.04, -24.01, -25.35, -24.61, -21.03, -17.99, 0.000, 0.000, 0.000, 03:43:26.262
41, -20.90, -26.67, -18.66, -21.99, -24.74, -15.04, -16.85, -22.04, -18.91, -23.11, -14.04, -24.01, -25.35, -24.61, -21.03, -17.99, 0.000, 0.000, 0.000, 03:43:26.266
42, -20.90, -26.67, -18.66, -21.99, -24.74, -15.04, -16.85, -22.04, -18.71, -23.40, -14.10, -23.72, -25.28, -24.99, -21.17, -18.02, 0.000, 0.000, 0.000, 03:43:26.270
43, -20.70, -26.58, -18.64, -22.13, -25.01, -14.93, -16.70, -22.08, -18.71, -23.40, -14.10, -23.72, -25.28, -24.99, -21.17, -18.02, 0.000, 0.000, 0.000, 03:43:26.273
44, -20.70, -26.58, -18.64, -22.13, -25.01, -14.93, -16.70, -22.08, -18.91, -23.38, -14.06, -23.89, -25.30, -24.79, -21.30, -18.08, 0.000, 0.000, 0.000, 03:43:26.278
45, -20.74, -26.49, -18.71, -22.24, -25.06, -14.86, -16.58, -22.28, -18.91, -23.38, -14.06, -23.89, -25.30, -24.79, -21.30, -18.08, 0.000, 0.000, 0.000, 03:43:26.283
46, -20.74, -26.49, -18.71, -22.24, -25.06, -14.86, -16.58, -22.28, -18.91, -23.34, -14.10, -24.10, -25.46, -24.86, -21.35, -17.93, 0.018, 0.958, 0.300, 03:43:26.286
47, -20.74, -26.62, -18.69, -22.33, -25.19, -14.86, -16.70, -22.11, -18.91, -23.34, -14.10, -24.10, -25.46, -24.86, -21.35, -17.93, 0.000, 0.000, 0.000, 03:43:26.289
48, -20.74, -26.62, -18.69, -22.33, -25.19, -14.86, -16.70, -22.11, -18.98, -23.49, -14.06, -23.94, -25.24, -24.74, -21.08, -17.93, 0.000, 0.000, 0.000, 03:43:26.295
49, -20.65, -26.51, -18.66, -21.93, -25.28, -15.11, -16.79, -22.02, -18.98, -23.49, -14.06, -23.94, -25.24, -24.74, -21.08, -17.93, 0.000, 0.000, 0.000, 03:43:26.299
50, -20.65, -26.51, -18.66, -21.93, -25.28, -15.11, -16.79, -22.02, -19.04, -23.40, -13.99, -23.87, -25.21, -24.77, -21.23, -18.06, 0.000, 0.000, 0.000, 03:43:26.302
51, -20.79, -26.64, -18.44, -22.13, -24.88, -15.02, -16.67, -22.15, -19.04, -23.40, -13.99, -23.87, -25.21, -24.77, -21.23, -18.06, 0.000, 0.000, 0.000, 03:43:26.307
52, -20.79, -26.64, -18.44, -22.13, -24.88, -15.02, -16.67, -22.15, -19.00, -23.38, -13.99, -23.83, -25.39, -24.86, -21.21, -17.79, 0.000, 0.000, 0.000, 03:43:26.312
53, -20.79, -26.69, -18.40, -21.99, -25.03, -14.95, -16.61, -21.99, -19.00, -23.38, -13.99, -23.83, -25.39, -24.86, -21.21, -17.79, 0.000, 0.000, 0.000, 03:43:26.315
54, -20.79, -26.69, -18.40, -21.99, -25.03, -14.95, -16.61, -21.99, -18.75, -23.38, -13.90, -23.98, -25.24, -24.72, -21.12, -17.81, 0.000, 0.000, 0.000, 03:43:26.320
55, -20.79, -26.64, -18.73, -22.26, -25.03, -14.77, -16.52, -22.06, -18.75, -23.38, -13.90, -23.98, -25.24, -24.72, -21.12, -17.81, 0.000, 0.000, 0.000, 03:43:26.324
56, -20.79, -26.64, -18.73, -22.26, -25.03, -14.77, -16.52, -22.06, -18.91, -23.25, -13.93, -23.80, -25.39, -24.90, -21.26, -17.84, 0.026, 0.942, 0.288, 03:43:26.326
57, -20.74, -26.53, -18.55, -22.20, -25.06, -14.98, -16.63, -22.06, -18.91, -23.25, -13.93, -23.80, -25.39, -24.90, -21.26, -17.84, 0.000, 0.000, 0.000, 03:43:26.330
58, -20.74, -26.53, -18.55, -22.20, -25.06, -14.98, -16.63, -22.06, -19.02, -23.45, -13.77, -24.03, -25.44, -24.81, -21.28, -17.81, 0.000, 0.000, 0.000, 03:43:26.333
59, -20.72, -26.40, -18.42, -21.90, -25.21, -15.00, -16.88, -22.24, -19.02, -23.45, -13.77, -24.03, -25.44, -24.81, -21.28, -17.81, 0.000, 0.000, 0.000, 03:43:26.338
60, -20.72, -26.40, -18.42, -21.90, -25.21, -15.00, -16.88, -22.24, -18.86, -23.63, -13.70, -23.80, -25.24, -24.74, -21.30, -18.08, 0.000, 0.000, 0.000, 03:43:26.342
61, -20.92, -26.62, -18.55, -22.02, -24.79, -14.89, -16.94, -22.24, -18.86, -23.63, -13.70, -23.80, -25.24, -24.74, -21.30, -18.08, 0.000, 0.000, 0.000, 03:43:26.346
62, -20.92, -26.62, -18.55, -22.02, -24.79, -14.89, -16.94, -22.24, -19.02, -23.36, -13.95, -24.10, -25.28, -24.74, -21.12, -18.02, 0.000, 0.000, 0.000, 03:43:26.349
63, -20.76, -26.40, -18.46, -22.11, -25.03, -14.95, -16.63, -22.06, -19.02, -23.36, -13.95, -24.10, -25.28, -24.74, -21.12, -18.02, 0.000, 0.000, 0.000, 03:43:26.353
64, -20.76, -26.40, -18.46, -22.11, -25.03, -14.95, -16.63, -22.06, -19.13, -23.51, -13.95, -23.94, -25.26, -24.83, -21.12, -18.06, 0.000, 0.000, 0.000, 03:43:26.358
65, -20.74, -26.55, -18.28, -22.06, -25.01, -14.98, -16.72, -22.11, -19.13, -23.51, -13.95, -23.94, -25.26, -24.83, -21.12, -18.06, 0.022, 0.946, 0.300, 03:43:26.361
66, -20.74, -26.55, -18.28, -22.06, -25.01, -14.98, -16.72, -22.11, -18.93, -23.45, -13.93, -23.98, -25.32, -24.86, -21.17, -17.97, 0.000, 0.000, 0.000, 03:43:26.366
67, -20.76, -26.51, -18.42, -22.24, -25.19, -14.95, -16.83, -22.11, -18.93, -23.45, -13.93, -23.98, -25.32, -24.86, -21.17, -17.97, 0.000, 0.000, 0.000, 03:43:26.371
68, -20.76, -26.51, -18.42, -22.24, -25.19, -14.95, -16.83, -22.11, -18.95, -23.63, -13.93, -24.07, -25.44, -24.83, -21.32, -17.99, 0.000, 0.000, 0.000, 03:43:26.373
69, -20.68, -26.53, -18.46, -21.84, -25.17, -15.09, -16.72, -22.24, -18.95, -23.63, -13.93, -24.07, -25.44, -24.83, -21.32, -17.99, 0.000, 0.000, 0.000, 03:43:26.378
70, -20.68, -26.53, -18.46, -21.84, -25.17, -15.09, -16.72, -22.24, -19.04, -23.38, -13.68, -24.07, -25.44, -24.77, -21.14, -18.02, 0.000, 0.000, 0.000, 03:43:26.381
71, -20.61, -26.49, -18.53, -21.99, -25.06, -14.84, -16.58, -22.22, -19.04, -23.38, -13.68, -24.07, -25.44, -24.77, -21.14, -18.02, 0.000, 0.000, 0.000, 03:43:26.386
72, -20.61, -26.49, -18.53, -21.99, -25.06, -14.84, -16.58, -22.22, -18.89, -23.47, -14.04, -23.94, -25.53, -24.99, -21.08, -18.06, 0.000, 0.000, 0.000, 03:43:26.390
73, -20.52, -26.67, -18.42, -21.84, -25.03, -14.89, -16.70, -22.24, -18.89, -23.47, -14.04, -23.94, -25.53, -24.99, -21.08, -18.06, 0.000, 0.000, 0.000, 03:43:26.394
74, -20.52, -26.67, -18.42, -21.84, -25.03, -14.89, -16.70, -22.24, -18.69, -23.20, -13.97, -23.87, -25.32, -24.79, -21.23, -18.08, 0.000, 0.000, 0.000, 03:43:26.398
75, -20.70, -26.58, -18.40, -22.15, -24.97, -14.98, -16.74, -22.35, -18.69, -23.20, -13.97, -23.87, -25.32, -24.79, -21.23, -18.08, 0.014, 0.934, 0.290, 03:43:26.404
76, -20.70, -26.58, -18.40, -22.15, -24.97, -14.98, -16.74, -22.35, -18.75, -23.47, -13.84, -23.78, -25.30, -24.83, -20.92, -17.93, 0.000, 0.000, 0.000, 03:43:26.407
77, -20.92, -26.62, -18.62, -21.97, -24.90, -14.91, -16.79, -22.15, -18.75, -23.47, -13.84, -23.78, -25.30, -24.83, -20.92, -17.93, 0.000, 0.000, 0.000, 03:43:26.411
78, -20.92, -26.62, -18.62, -21.97, -24.90, -14.91, -16.79, -22.15, -18.89, -23.34, -13.86, -23.94, -25.32, -24.70, -21.35, -18.10, 0.000, 0.000, 0.000, 03:43:26.414
79, -20.68, -26.60, -18.53, -22.13, -25.03, -15.00, -17.01, -22.08, -18.89, -23.34, -13.86, -23.94, -25.32, -24.70, -21.35, -18.10, 0.000, 0.000, 0.000, 03:43:26.417
80, -20.68, -26.60, -18.53, -22.13, -25.03, -15.00, -17.01, -22.08, -18.93, -23.38, -13.84, -23.80, -25.15, -24.70, -21.01, -18.13, 0.000, 0.000, 0.000, 03:43:26.422
81, -20.76, -26.64, -18.57, -21.99, -24.94, -14.86, -16.88, -22.22, -18.93, -23.38, -13.84, -23.80, -25.15, -24.70, -21.01, -18.13, 0.000, 0.000, 0.000, 03:43:26.426
82, -20.76, -26.64, -18.57, -21.99, -24.94, -14.86, -16.88, -22.22, -19.00, -23.60, -13.70, -23.94, -25.26, -24.81, -21.30, -18.06, 0.000, 0.000, 0.000, 03:43:26.428
83, -20.72, -26.62, -18.57, -21.86, -24.83, -14.89, -16.76, -22.26, -19.00, -23.60, -13.70, -23.94, -25.26, -24.81, -21.30, -18.06, 0.000, 0.000, 0.000, 03:43:26.433
84, -20.72, -26.62, -18.57, -21.86, -24.83, -14.89, -16.76, -22.26, -19.09, -23.42, -13.77, -24.05, -25.28, -24.88, -21.28, -18.02, 0.000, 0.000, 0.000, 03:43:26.438
85, -20.59, -26.71, -18.46, -22.06, -25.19, -14.98, -16.74, -22.20, -19.09, -23.42, -13.77, -24.05, -25.28, -24.88, -21.28, -18.02, 0.010, 0.932, 0.300, 03:43:26.442
86, -20.59, -26.71, -18.46, -22.06, -25.19, -14.98, -16.74, -22.20, -18.95, -23.27, -14.01, -23.87, -25.35, -24.92, -21.12, -17.93, 0.000, 0.000, 0.000, 03:43:26.445
87, -20.74, -26.44, -18.64, -21.99, -25.06, -14.93, -16.76, -22.11, -18.95, -23.27, -14.01, -23.87, -25.35, -24.92, -21.12, -17.93, 0.000, 0.000, 0.000, 03:43:26.450
88, -20.74, -26.44, -18.64, -21.99, -25.06, -14.93, -16.76, -22.11, -18.86, -23.40, -13.75, -24.07, -25.28, -24.79, -21.23, -17.88, 0.000, 0.000, 0.000, 03:43:26.454
89, -20.85, -26.51, -18.55, -22.02, -24.81, -14.89, -16.52, -22.02, -18.86, -23.40, -13.75, -24.07, -25.28, -24.79, -21.23, -17.88, 0.000, 0.000, 0.000, 03:43:26.458
90, -20.85, -26.51, -18.55, -22.02, -24.81, -14.89, -16.52, -22.02, -18.91, -23.54, -13.79, -24.21, -25.21, -24.92, -21.32, -17.99, 0.000, 0.000, 0.000, 03:43:26.462
91, -20.81, -26.49, -18.51, -21.88, -24.74, -14.89, -16.72, -22.26, -18.91, -23.54, -13.79, -24.21, -25.21, -24.92, -21.32, -17.99, 0.000, 0.000, 0.000, 03:43:26.466
92, -20.81, -26.49, -18.51, -21.88, -24.74, -14.89, -16.72, -22.26, -18.91, -23.25, -13.99, -23.96, -25.37, -24.68, -21.32, -17.93, 0.000, 0.000, 0.000, 03:43:26.469
93, -20.83, -26.64, -18.60, -22.13, -24.81, -15.00, -16.92, -22.11, -18.91, -23.25, -13.99, -23.96, -25.37, -24.68, -21.32, -17.93, 0.000, 0.000, 0.000, 03:43:26.474
94, -20.83, -26.64, -18.60, -22.13, -24.81, -15.00, -16.92, -22.11, -18.91, -23.31, -14.01, -23.78, -25.24, -24.81, -21.17, -18.13, 0.000, 0.000, 0.000, 03:43:26.477
95, -20.74, -26.55, -18.71, -21.97, -24.99, -14.98, -16.72, -22.24, -18.91, -23.31, -14.01, -23.78, -25.24, -24.81, -21.17, -18.13, 0.008, 0.932, 0.282, 03:43:26.481
96, -20.74, -26.55, -18.71, -21.97, -24.99, -14.98, -16.72, -22.24, -18.91, -23.36, -14.13, -24.03, -25.44, -24.77, -21.44, -17.90, 0.000, 0.000, 0.000, 03:43:26.485
97, -20.74, -26.58, -18.48, -22.02, -25.12, -15.00, -16.85, -22.11, -18.91, -23.36, -14.13, -24.03, -25.44, -24.77, -21.44, -17.90, 0.000, 0.000, 0.000, 03:43:26.489
98, -20.74, -26.58, -18.48, -22.02, -25.12, -15.00, -16.85, -22.11, -18.89, -23.47, -14.13, -23.80, -25.41, -24.83, -21.32, -17.93, 0.000, 0.000, 0.000, 03:43:26.493
99, -20.79, -26.67, -18.64, -22.13, -25.10, -14.69, -16.65, -22.02, -18.89, -23.47, -14.13, -23.80, -25.41, -24.83, -21.32, -17.93, 0.000, 0.000, 0.000, 03:43:26.498
100, -20.79, -26.67, -18.64, -22.13, -25.10, -14.69, -16.65, -22.02, -18.71, -23.42, -13.99, -23.89, -25.24, -24.65, -21.32, -17.99, 0.000, 0.000, 0.000, 03:43:26.502
101, -20.68, -26.51, -18.46, -22.04, -24.94, -14.73, -16.61, -22.06, -18.71, -23.42, -13.99, -23.89, -25.24, -24.65, -21.32, -17.99, 0.000, 0.000, 0.000, 03:43:26.505
102, -20.68, -26.51, -18.46, -22.04, -24.94, -14.73, -16.61, -22.06, -18.75, -23.49, -13.97, -23.83, -25.10, -24.83, -21.30, -17.97, 0.000, 0.000, 0.000, 03:43:26.511
103, -20.74, -26.33, -18.53, -22.13, -24.90, -14.80, -16.67, -22.02, -18.75, -23.49, -13.97, -23.83, -25.10, -24.83, -21.30, -17.97, 0.000, 0.000, 0.000, 03:43:26.513
104, -20.74, -26.33, -18.53, -22.13, -24.90, -14.80, -16.67, -22.02, -18.80, -23.40, -13.93, -23.94, -25.46, -24.72, -21.26, -18.15, 0.000, 0.000, 0.000, 03:43:26.518
105, -20.90, -26.62, -18.44, -22.22, -24.92, -14.91, -16.72, -22.15, -18.80, -23.40, -13.93, -23.94, -25.46, -24.72, -21.26, -18.15, 0.010, 0.934, 0.284, 03:43:26.522
106, -20.90, -26.62, -18.44, -22.22, -24.92, -14.91, -16.72, -22.15, -18.95, -23.56, -13.79, -24.16, -25.50, -24.90, -21.30, -18.19, 0.000, 0.000, 0.000, 03:43:26.525
107, -20.97, -26.67, -18.62, -21.88, -24.88, -15.11, -16.63, -22.20, -18.95, -23.56, -13.79, -24.16, -25.50, -24.90, -21.30, -18.19, 0.000, 0.000, 0.000, 03:43:26.530
108, -20.97, -26.67, -18.62, -21.88, -24.88, -15.11, -16.63, -22.20, -18.93, -23.45, -13.95, -23.96, -25.26, -24.97, -21.21, -17.97, 0.000, 0.000, 0.000, 03:43:26.533
109, -20.88, -26.53, -18.53, -22.04, -24.81, -14.98, -16.94, -21.97, -18.93, -23.45, -13.95, -23.96, -25.26, -24.97, -21.21, -17.97, 0.000, 0.000, 0.000, 03:43:26.536
110, -20.88, -26.53, -18.53, -22.04, -24.81, -14.98, -16.94, -21.97, -19.00, -23.54, -13.93, -23.92, -25.32, -25.03, -21.26, -17.88, 0.000, 0.000, 0.000, 03:43:26.541
111, -20.83, -26.51, -18.62, -22.02, -25.08, -15.04, -16.81, -22.04, -19.00, -23.54, -13.93, -23.92, -25.32, -25.03, -21.26, -17.88, 0.000, 0.000, 0.000, 03:43:26.546
112, -20.83, -26.51, -18.62, -22.02, -25.08, -15.04, -16.81, -22.04, -18.80, -23.42, -13.79, -24.03, -25.32, -24.86, -21.21, -17.99, 0.000, 0.000, 0.000, 03:43:26.549
113, -20.68, -26.42, -18.48, -22.24, -25.08, -15.09, -16.63, -22.04, -18.80, -23.42, -13.79, -24.03, -25.32, -24.86, -21.21, -17.99, 0.000, 0.000, 0.000, 03:43:26.554
114, -20.68, -26.42, -18.48, -22.24, -25.08, -15.09, -16.63, -22.04, -18.86, -23.25, -13.95, -23.96, -25.39, -24.83, -21.26, -18.10, 0.000, 0.000, 0.000, 03:43:26.558
115, -20.90, -26.49, -18.62, -22.06, -25.21, -14.95, -16.70, -21.95, -18.86, -23.25, -13.95, -23.96, -25.39, -24.83, -21.26, -18.10, 0.022, 0.938, 0.288, 03:43:26.560
116, -20.90, -26.49, -18.62, -22.06, -25.21, -14.95, -16.70, -21.95, -19.04, -23.40, -14.01, -23.92, -25.41, -24.86, -21.23, -17.99, 0.000, 0.000, 0.000, 03:43:26.565
117, -20.74, -26.40, -18.66, -21.99, -24.97, -14.84, -16.56, -22.02, -19.04, -23.40, -14.01, -23.92, -25.41, -24.86, -21.23, -17.99, 0.000, 0.000, 0.000, 03:43:26.569
118, -20.74, -26.40, -18.66, -21.99, -24.97, -14.84, -16.56, -22.02, -18.86, -23.42, -13.86, -24.14, -25.24, -24.94, -21.26, -18.19, 0.000, 0.000, 0.000, 03:43:26.574
119, -20.79, -26.55, -18.42, -22.22, -24.88, -15.09, -16.72, -22.08, -18.86, -23.42, -13.86, -24.14, -25.24, -24.94, -21.26, -18.19, 0.000, 0.000, 0.000, 03:43:26.578
120, -20.79, -26.55, -18.42, -22.22, -24.88, -15.09, -16.72, -22.08, -18.89, -23.65, -13.90, -24.05, -25.46, -24.83, -21.26, -18.04, 0.000, 0.000, 0.000, 03:43:26.582
121, -20.61, -26.55, -18.60, -22.02, -25.01, -15.00, -16.88, -22.02, -18.89, -23.65, -13.90, -24.05, -25.46, -24.83, -21.26, -18.04, 0.000, 0.000, 0.000, 03:43:26.584
122, -20.61, -26.55, -18.60, -22.02, -25.01, -15.00, -16.88, -22.02, -19.07, -23.36, -13.86, -24.10, -25.57, -24.88, -21.21, -18.04, 0.000, 0.000, 0.000, 03:43:26.589
123, -20.65, -26.49, -18.57, -22.31, -24.94, -15.00, -16.90, -22.06, -19.07, -23.36, -13.86, -24.10, -25.57, -24.88, -21.21, -18.04, 0.000, 0.000, 0.000, 03:43:26.593
124, -20.65, -26.49, -18.57, -22.31, -24.94, -15.00, -16.90, -22.06, -18.66, -23.29, -13.72, -23.80, -25.21, -24.70, -21.14, -18.13, 0.000, 0.000, 0.000, 03:43:26.597
125, -20.81, -26.60, -18.42, -22.28, -25.06, -15.02, -16.79, -22.17, -18.66, -23.29, -13.72, -23.80, -25.21, -24.70, -21.14, -18.13, 0.020, 0.940, 0.292, 03:43:26.601
126, -20.81, -26.60, -18.42, -22.28, -25.06, -15.02, -16.79, -22.17, -18.73, -23.31, -13.93, -24.03, -25.57, -24.88, -21.30, -17.90, 0.000, 0.000, 0.000, 03:43:26.605
127, -20.79, -26.42, -18.48, -22.11, -25.24, -15.00, -16.83, -22.08, -18.73, -23.31, -13.93, -24.03, -25.57, -24.88, -21.30, -17.90, 0.000, 0.000, 0.000, 03:43:26.610
128, -20.79, -26.42, -18.48, -22.11, -25.24, -15.00, -16.83, -22.08, -19.11, -23.47, -13.79, -23.89, -25.55, -24.74, -21.10, -17.97, 0.000, 0.000, 0.000, 03:43:26.615
129, -20.81, -26.64, -18.42, -21.95, -24.94, -14.75, -16.65, -22.22, -19.11, -23.47, -13.79, -23.89, -25.55, -24.74, -21.10, -17.97, 0.000, 0.000, 0.000, 03:43:26.617
130, -20.81, -26.64, -18.42, -21.95, -24.94, -14.75, -16.65, -22.22, -19.04, -23.49, -14.13, -23.76, -25.19, -24.79, -21.35, -17.99, 0.000, 0.000, 0.000, 03:43:26.621
131, -20.65, -26.62, -18.53, -22.08, -24.97, -14.98, -16.70, -22.13, -19.04, -23.49, -14.13, -23.76, -25.19, -24.79, -21.35, -17.99, 0.000, 0.000, 0.000, 03:43:26.624
132, -20.65, -26.62, -18.53, -22.08, -24.97, -14.98, -16.70, -22.13, -18.82, -23.31, -13.86, -23.89, -25.19, -24.70, -21.21, -18.06, 0.000, 0.000, 0.000, 03:43:26.629
133, -20.63, -26.76, -18.57, -22.24, -24.83, -14.84, -16.63, -22.13, -18.82, -23.31, -13.86, -23.89, -25.19, -24.70, -21.21, -18.06, 0.000, 0.000, 0.000, 03:43:26.634
134, -20.63, -26.76, -18.57, -22.24, -24.83, -14.84, -16.63, -22.13, -18.84, -23.47, -13.84, -24.21, -25.26, -24.68, -21.21, -18.04, 0.018, 0.944, 0.292, 03:43:26.637
135, -20.70, -26.71, -18.35, -22.37, -24.90, -15.00, -16.65, -22.15, -18.84, -23.47, -13.84, -24.21, -25.26, -24.68, -21.21, -18.04, 0.000, 0.000, 0.000, 03:43:26.641
136, -20.70, -26.71, -18.35, -22.37, -24.90, -15.00, -16.65, -22.15, -18.93, -23.40, -13.70, -24.03, -25.15, -24.92, -21.12, -18.08, 0.000, 0.000, 0.000, 03:43:26.644
137, -20.81, -26.62, -18.57, -22.06, -25.15, -14.86, -16.61, -21.97, -18.93, -23.40, -13.70, -24.03, -25.15, -24.92, -21.12, -18.08, 0.000, 0.000, 0.000, 03:43:26.649
138, -20.81, -26.62, -18.57, -22.06, -25.15, -14.86, -16.61, -21.97, -18.84, -23.47, -13.88, -24.01, -25.26, -25.06, -20.97, -18.10, 0.000, 0.000, 0.000, 03:43:26.653
139, -20.85, -26.49, -18.26, -22.11, -25.06, -14.93, -16.76, -22.06, -18.84, -23.47, -13.88, -24.01, -25.26, -25.06, -20.97, -18.10, 0.000, 0.000, 0.000, 03:43:26.656
140, -20.85, -26.49, -18.26, -22.11, -25.06, -14.93, -16.76, -22.06, -18.80, -23.51, -13.79, -23.94, -25.48, -24.94, -21.12, -18.10, 0.000, 0.000, 0.000, 03:43:26.662
141, -20.81, -26.49, -18.24, -21.97, -25.21, -15.04, -16.72, -22.24, -18.80, -23.51, -13.79, -23.94, -25.48, -24.94, -21.12, -18.10, 0.000, 0.000, 0.000, 03:43:26.666
142, -20.81, -26.49, -18.24, -21.97, -25.21, -15.04, -16.72, -22.24, -18.89, -23.47, -13.99, -24.12, -25.35, -24.94, -21.21, -18.15, 0.000, 0.000, 0.000, 03:43:26.668
143, -20.70, -26.62, -18.75, -21.95, -25.12, -15.02, -16.70, -22.20, -18.89, -23.47, -13.99, -24.12, -25.35, -24.94, -21.21, -18.15, 0.000, 0.000, 0.000, 03:43:26.673
144, -20.70, -26.62, -18.75, -21.95, -25.12, -15.02, -16.70, -22.20, -18.82, -23.36, -14.01, -23.89, -25.15, -24.65, -21.21, -18.19, 0.014, 0.946, 0.300, 03:43:26.677
145, -20.83, -26.42, -18.64, -21.88, -25.12, -14.91, -16.63, -22.40, -18.82, -23.36, -14.01, -23.89, -25.15, -24.65, -21.21, -18.19, 0.000, 0.000, 0.000, 03:43:26.681
146, -20.83, -26.42, -18.64, -21.88, -25.12, -14.91, -16.63, -22.40, -18.86, -23.36, -13.79, -24.05, -25.48, -24.83, -21.30, -18.15, 0.000, 0.000, 0.000, 03:43:26.685
147, -20.72, -26.53, -18.44, -22.22, -25.15, -14.77, -16.79, -22.26, -18.86, -23.36, -13.79, -24.05, -25.48, -24.83, -21.30, -18.15, 0.000, 0.000, 0.000, 03:43:26.690
148, -20.72, -26.53, -18.44, -22.22, -25.15, -14.77, -16.79, -22.26, -18.89, -23.29, -13.84, -24.03, -25.59, -24.94, -21.14, -17.97, 0.000, 0.000, 0.000, 03:43:26.693
149, -20.88, -26.55, -18.62, -22.15, -24.88, -15.07, -16.67, -22.11, -18.89, -23.29, -13.84, -24.03, -25.59, -24.94, -21.14, -17.97, 0.000, 0.000, 0.000, 03:43:26.697
150, -20.88, -26.55, -18.62, -22.15, -24.88, -15.07, -16.67, -22.11, -18.89, -23.54, -13.84, -23.96, -25.35, -24.72, -21.21, -18.35, 0.000, 0.000, 0.000, 03:43:26.700
151, -20.85, -26.53, -18.44, -22.08, -24.88, -14.89, -16.83, -22.37, -18.89, -23.54, -13.84, -23.96, -25.35, -24.72, -21.21, -18.35, 0.000, 0.000, 0.000, 03:43:26.705
152, -20.85, -26.53, -18.44, -22.08, -24.88, -14.89, -16.83, -22.37, -18.89, -23.67, -13.77, -24.05, -25.32, -24.77, -21.21, -18.08, 0.000, 0.000, 0.000, 03:43:26.709
153, -20.70, -26.49, -18.55, -22.02, -24.81, -14.89, -16.92, -22.24, -18.89, -23.67, -13.77, -24.05, -25.32, -24.77, -21.21, -18.08, 0.000, 0.000, 0.000, 03:43:26.713
154, -20.70, -26.49, -18.55, -22.02, -24.81, -14.89, -16.92, -22.24, -18.91, -23.54, -13.86, -24.03, -25.21, -24.68, -21.28, -17.97, 0.022, 0.950, 0.290, 03:43:26.717
155, -20.81, -26.42, -18.55, -22.28, -24.97, -14.98, -16.90, -22.42, -18.91, -23.54, -13.86, -24.03, -25.21, -24.68, -21.28, -17.97, 0.000, 0.000, 0.000, 03:43:26.721
156, -20.81, -26.42, -18.55, -22.28, -24.97, -14.98, -16.90, -22.42, -18.95, -23.34, -13.97, -23.92, -25.48, -24.77, -21.37, -18.13, 0.000, 0.000, 0.000, 03:43:26.724
157, -20.83, -26.51, -18.60, -22.08, -25.10, -14.80, -16.79, -22.17, -18.95, -23.34, -13.97, -23.92, -25.48, -24.77, -21.37, -18.13, 0.000, 0.000, 0.000, 03:43:26.729
158, -20.83, -26.51, -18.60, -22.08, -25.10, -14.80, -16.79, -22.17, -18.95, -23.49, -14.17, -24.16, -25.41, -24.63, -21.14, -18.02, 0.000, 0.000, 0.000, 03:43:26.732
159, -20.63, -26.53, -18.60, -22.04, -24.94, -14.80, -16.83, -22.44, -18.95, -23.49, -14.17, -24.16, -25.41, -24.63, -21.14, -18.02, 0.000, 0.000, 0.000, 03:43:26.737
160, -20.63, -26.53, -18.60, -22.04, -24.94, -14.80, -16.83, -22.44, -18.84, -23.45, -13.86, -24.01, -25.44, -24.79, -21.35, -17.86, 0.000, 0.000, 0.000, 03:43:26.741
161, -20.56, -26.60, -18.48, -22.20, -25.08, -15.07, -16.65, -21.93, -18.84, -23.45, -13.86, -24.01, -25.44, -24.79, -21.35, -17.86, 0.000, 0.000, 0.000, 03:43:26.745
162, -20.56, -26.60, -18.48, -22.20, -25.08, -15.07, -16.65, -21.93, -18.86, -23.29, -14.13, -24.01, -25.44, -24.81, -21.10, -18.26, 0.000, 0.000, 0.000, 03:43:26.749
163, -20.74, -26.62, -18.48, -21.88, -25.06, -15.02, -16.76, -22.11, -18.86, -23.29, -14.13, -24.01, -25.44, -24.81, -21.10, -18.26, 0.000, 0.000, 0.000, 03:43:26.752
164, -20.74, -26.62, -18.48, -21.88, -25.06, -15.02, -16.76, -22.11, -18.78, -23.42, -13.97, -23.94, -25.35, -24.88, -20.92, -18.15, 0.032, 0.944, 0.294, 03:43:26.756
165, -20.68, -26.67, -18.53, -22.04, -25.06, -14.73, -16.61, -22.24, -18.78, -23.42, -13.97, -23.94, -25.35, -24.88, -20.92, -18.15, 0.000, 0.000, 0.000, 03:43:26.761
166, -20.68, -26.67, -18.53, -22.04, -25.06, -14.73, -16.61, -22.24, -18.78, -23.34, -14.04, -24.03, -25.30, -24.86, -21.37, -18.06, 0.000, 0.000, 0.000, 03:43:26.765
167, -20.65, -26.46, -18.37, -21.90, -24.83, -15.00, -16.34, -22.24, -18.78, -23.34, -14.04, -24.03, -25.30, -24.86, -21.37, -18.06, 0.000, 0.000, 0.000, 03:43:26.769
168, -20.65, -26.46, -18.37, -21.90, -24.83, -15.00, -16.34, -22.24, -18.84, -23.40, -14.04, -24.07, -25.32, -24.81, -21.30, -18.17, 0.000, 0.000, 0.000, 03:43:26.773
169, -20.76, -26.55, -18.40, -22.04, -24.92, -14.84, -16.65, -22.13, -18.84, -23.40, -14.04, -24.07, -25.32, -24.81, -21.30, -18.17, 0.000, 0.000, 0.000, 03:43:26.777
170, -20.76, -26.55, -18.40, -22.04, -24.92, -14.84, -16.65, -22.13, -18.82, -23.40, -13.90, -23.92, -25.37, -24.54, -21.12, -17.95, 0.000, 0.000, 0.000, 03:43:26.780
171, -20.74, -26.35, -18.51, -21.95, -24.88, -14.86, -16.72, -22.28, -18.82, -23.40, -13.90, -23.92, -25.37, -24.54, -21.12, -17.95, 0.000, 0.000, 0.000, 03:43:26.785
172, -20.74, -26.35, -18.51, -21.95, -24.88, -14.86, -16.72, -22.28, -19.07, -23.16, -14.10, -23.98, -25.48, -24.72, -21.14, -17.88, 0.000, 0.000, 0.000, 03:43:26.789
173, -20.68, -26.46, -18.53, -22.04, -24.88, -14.84, -16.72, -22.33, -19.07, -23.16, -14.10, -23.98, -25.48, -24.72, -21.14, -17.88, 0.000, 0.000, 0.000, 03:43:26.793
174, -20.68, -26.46, -18.53, -22.04, -24.88, -14.84, -16.72, -22.33, -18.98, -23.40, -13.88, -23.85, -25.19, -24.77, -21.10, -17.88, 0.024, 0.942, 0.286, 03:43:26.797
175, -20.70, -26.71, -18.35, -21.99, -25.15, -14.86, -16.70, -22.15, -18.98, -23.40, -13.88, -23.85, -25.19, -24.77, -21.10, -17.88, 0.000, 0.000, 0.000, 03:43:26.799
176, -20.70, -26.71, -18.35, -21.99, -25.15, -14.86, -16.70, -22.15, -19.09, -23.56, -13.99, -23.92, -25.41, -24.83, -21.17, -17.97, 0.000, 0.000, 0.000, 03:43:26.804
177, -20.61, -26.44, -18.35, -22.24, -25.15, -14.84, -16.65, -22.06, -19.09, -23.56, -13.99, -23.92, -25.41, -24.83, -21.17, -17.97, 0.000, 0.000, 0.000, 03:43:26.808
178, -20.61, -26.44, -18.35, -22.24, -25.15, -14.84, -16.65, -22.06, -18.89, -23.54, -14.06, -24.18, -25.37, -24.65, -21.08, -18.15, 0.000, 0.000, 0.000, 03:43:26.813
179, -20.88, -26.64, -18.44, -22.22, -25.10, -14.95, -16.65, -22.22, -18.89, -23.54, -14.06, -24.18, -25.37, -24.65, -21.08, -18.15, 0.000, 0.000, 0.000, 03:43:26.817
180, -20.88, -26.64, -18.44, -22.22, -25.10, -14.95, -16.65, -22.22, -18.84, -23.60, -13.86, -24.07, -25.28, -24.79, -21.37, -18.02, 0.000, 0.000, 0.000, 03:43:26.820
181, -20.92, -26.60, -18.60, -22.24, -24.86, -14.86, -16.47, -21.88, -18.84, -23.60, -13.86, -24.07, -25.28, -24.79, -21.37, -18.02, 0.000, 0.000, 0.000, 03:43:26.825
182, -20.92, -26.60, -18.60, -22.24, -24.86, -14.86, -16.47, -21.88, -18.86, -23.47, -14.10, -24.25, -25.41, -24.63, -21.17, -17.95, 0.000, 0.000, 0.000, 03:43:26.829
183, -20.81, -26.73, -18.60, -22.13, -24.99, -14.95, -16.67, -22.08, -18.86, -23.47, -14.10, -24.25, -25.41, -24.63, -21.17, -17.95, 0.000, 0.000, 0.000, 03:43:26.832
184, -20.81, -26.73, -18.60, -22.13, -24.99, -14.95, -16.67, -22.08, -18.84, -23.54, -13.97, -24.01, -25.41, -24.83, -21.10, -18.02, 0.020, 0.944, 0.280, 03:43:26.836
185, -20.88, -26.69, -18.62, -21.99, -25.03, -14.77, -16.65, -22.17, -18.84, -23.54, -13.97, -24.01, -25.41, -24.83, -21.10, -18.02, 0.000, 0.000, 0.000, 03:43:26.841
186, -20.88, -26.69, -18.62, -21.99, -25.03, -14.77, -16.65, -22.17, -18.86, -23.65, -14.19, -23.87, -25.35, -24.72, -21.14, -18.06, 0.000, 0.000, 0.000, 03:43:26.845
187, -20.81, -26.46, -18.51, -22.02, -25.01, -14.86, -16.72, -22.04, -18.86, -23.65, -14.19, -23.87, -25.35, -24.72, -21.14, -18.06, 0.000, 0.000, 0.000, 03:43:26.849
188, -20.81, -26.46, -18.51, -22.02, -25.01, -14.86, -16.72, -22.04, -18.89, -23.38, -13.97, -24.01, -25.41, -24.65, -21.10, -18.06, 0.000, 0.000, 0.000, 03:43:26.854
189, -20.65, -26.51, -18.40, -22.13, -24.94, -14.93, -16.65, -22.24, -18.89, -23.38, -13.97, -24.01, -25.41, -24.65, -21.10, -18.06, 0.000, 0.000, 0.000, 03:43:26.856
190, -20.65, -26.51, -18.40, -22.13, -24.94, -14.93, -16.65, -22.24, -18.86, -23.45, -13.95, -24.16, -25.48, -24.74, -20.94, -18.04, 0.000, 0.000, 0.000, 03:43:26.860
191, -20.50, -26.46, -18.55, -22.02, -24.94, -14.95, -16.88, -22.02, -18.86, -23.45, -13.95, -24.16, -25.48, -24.74, -20.94, -18.04, 0.000, 0.000, 0.000, 03:43:26.864
192, -20.50, -26.46, -18.55, -22.02, -24.94, -14.95, -16.88, -22.02, -18.89, -23.40, -13.84, -23.98, -25.37, -24.79, -21.12, -17.99, 0.000, 0.000, 0.000, 03:43:26.868
193, -20.61, -26.67, -18.42, -21.95, -25.15, -15.07, -16.63, -22.06, -18.89, -23.40, -13.84, -23.98, -25.37, -24.79, -21.12, -17.99, 0.014, 0.948, 0.284, 03:43:26.873
194, -20.61, -26.67, -18.42, -21.95, -25.15, -15.07, -16.63, -22.06, -19.00, -23.49, -14.04, -24.03, -25.30, -24.94, -21.30, -18.08, 0.000, 0.000, 0.000, 03:43:26.877
195, -20.74, -26.53, -18.46, -21.90, -24.83, -14.98, -16.76, -22.17, -19.00, -23.49, -14.04, -24.03, -25.30, -24.94, -21.30, -18.08, 0.000, 0.000, 0.000, 03:43:26.881
196, -20.74, -26.53, -18.46, -21.90, -24.83, -14.98, -16.76, -22.17, -19.09, -23.49, -13.99, -23.87, -25.26, -24.94, -21.26, -18.08, 0.000, 0.000, 0.000, 03:43:26.884
197, -20.59, -26.40, -18.69, -22.04, -25.17, -14.77, -16.79, -22.11, -19.09, -23.49, -13.99, -23.87, -25.26, -24.94, -21.26, -18.08, 0.000, 0.000, 0.000, 03:43:26.888
198, -20.59, -26.40, -18.69, -22.04, -25.17, -14.77, -16.79, -22.11, -19.09, -23.54, -14.06, -23.96, -25.08, -24.90, -21.35, -18.04, 0.000, 0.000, 0.000, 03:43:26.892
199, -20.59, -26.60, -18.42, -22.08, -24.99, -14.71, -16.72, -22.22, -19.09, -23.54, -14.06, -23.96, -25.08, -24.90, -21.35, -18.04, 0.000, 0.000, 0.000, 03:43:26.896
200, -20.59, -26.60, -18.42, -22.08, -24.99, -14.71, -16.72, -22.22, -18.89, -23.54, -13.84, -23.94, -25.48, -24.70, -21.37, -17.77, 0.000, 0.000, 0.000, 03:43:26.901
201, -20.72, -26.60, -18.55, -22.04, -25.10, -14.80, -16.90, -22.28, -18.89, -23.54, -13.84, -23.94, -25.48, -24.70, -21.37, -17.77, 0.000, 0.000, 0.000, 03:43:26.905
202, -20.72, -26.60, -18.55, -22.04, -25.10, -14.80, -16.90, -22.28, -18.95, -23.49, -13.97, -23.94, -25.32, -24.56, -21.17, -17.99, 0.000, 0.000, 0.000, 03:43:26.908
203, -20.83, -26.62, -18.69, -21.82, -25.12, -14.84, -16.94, -22.37, -18.95, -23.49, -13.97, -23.94, -25.32, -24.56, -21.17, -17.99, 0.020, 0.944, 0.276, 03:43:26.913
204, -20.83, -26.62, -18.69, -21.82, -25.12, -14.84, -16.94, -22.37, -18.93, -23.34, -13.93, -24.12, -25.55, -25.10, -21.17, -17.99, 0.000, 0.000, 0.000, 03:43:26.916
205, -20.61, -26.55, -18.69, -21.97, -24.99, -14.95, -16.67, -22.22, -18.93, -23.34, -13.93, -24.12, -25.55, -25.10, -21.17, -17.99, 0.000, 0.000, 0.000, 03:43:26.920
206, -20.61, -26.55, -18.69, -21.97, -24.99, -14.95, -16.67, -22.22, -18.91, -23.40, -13.93, -23.85, -25.30, -24.92, -21.26, -18.26, 0.000, 0.000, 0.000, 03:43:26.925
207, -20.63, -26.49, -18.51, -22.08, -25.08, -15.02, -16.74, -22.20, -18.91, -23.40, -13.93, -23.85, -25.30, -24.92, -21.26, -18.26, 0.000, 0.000, 0.000, 03:43:26.929
208, -20.63, -26.49, -18.51, -22.08, -25.08, -15.02, -16.74, -22.20, -18.86, -23.38, -13.88, -23.89, -25.24, -24.83, -20.99, -18.04, 0.000, 0.000, 0.000, 03:43:26.933
209, -20.94, -26.49, -18.73, -21.93, -24.92, -14.77, -16.79, -22.26, -18.86, -23.38, -13.88, -23.89, -25.24, -24.83, -20.99, -18.04, 0.000, 0.000, 0.000, 03:43:26.937
210, -20.94, -26.49, -18.73, -21.93, -24.92, -14.77, -16.79, -22.26, -18.84, -23.38, -13.72, -23.72, -25.21, -24.77, -21.26, -18.15, 0.000, 0.000, 0.000, 03:43:26.941
211, -20.94, -26.49, -18.46, -21.97, -25.03, -14.86, -16.74, -22.08, -18.84, -23.38, -13.72, -23.72, -25.21, -24.77, -21.26, -18.15, 0.000, 0.000, 0.000, 03:43:26.944
212, -20.94, -26.49, -18.46, -21.97, -25.03, -14.86, -16.74, -22.08, -18.80, -23.36, -13.66, -24.05, -25.44, -24.59, -21.37, -17.95, 0.000, 0.000, 0.000, 03:43:26.951
213, -20.83, -26.60, -18.28, -22.08, -24.99, -15.00, -16.70, -22.17, -18.80, -23.36, -13.66, -24.05, -25.44, -24.59, -21.37, -17.95, 0.020, 0.948, 0.304, 03:43:26.954
214, -20.83, -26.60, -18.28, -22.08, -24.99, -15.00, -16.70, -22.17, -18.66, -23.42, -14.06, -23.98, -25.39, -24.92, -21.32, -18.06, 0.000, 0.000, 0.000, 03:43:26.958
215, -20.74, -26.80, -18.48, -22.04, -25.03, -14.95, -16.67, -22.15, -18.66, -23.42, -14.06, -23.98, -25.39, -24.92, -21.32, -18.06, 0.000, 0.000, 0.000, 03:43:26.961
216, -20.74, -26.80, -18.48, -22.04, -25.03, -14.95, -16.67, -22.15, -18.73, -23.45, -13.84, -23.96, -25.32, -24.79, -21.23, -18.02, 0.000, 0.000, 0.000, 03:43:26.964
217, -20.68, -26.35, -18.46, -21.99, -25.10, -14.98, -16.72, -21.99, -18.73, -23.45, -13.84, -23.96, -25.32, -24.79, -21.23, -18.02, 0.000, 0.000, 0.000, 03:43:26.968
218, -20.68, -26.35, -18.46, -21.99, -25.10, -14.98, -16.72, -21.99, -18.89, -23.65, -13.84, -24.10, -25.44, -24.86, -21.21, -18.08, 0.000, 0.000, 0.000, 03:43:26.972
219, -20.76, -26.62, -18.64, -22.24, -25.10, -14.80, -16.63, -22.26, -18.89, -23.65, -13.84, -24.10, -25.44, -24.86, -21.21, -18.08, 0.000, 0.000, 0.000, 03:43:26.976
220, -20.76, -26.62, -18.64, -22.24, -25.10, -14.80, -16.63, -22.26, -18.80, -23.47, -13.79, -24.03, -25.53, -24.74, -21.35, -18.06, 0.000, 0.000, 0.000, 03:43:26.981
221, -20.81, -26.55, -18.55, -22.08, -24.90, -14.84, -16.67, -22.15, -18.80, -23.47, -13.79, -24.03, -25.53, -24.74, -21.35, -18.06, 0.000, 0.000, 0.000, 03:43:26.984
222, -20.81, -26.55, -18.55, -22.08, -24.90, -14.84, -16.67, -22.15, -18.78, -23.51, -13.86, -23.94, -25.48, -24.77, -21.46, -18.08, 0.000, 0.000, 0.000, 03:43:26.989
223, -20.81, -26.71, -18.78, -22.08, -25.06, -14.77, -16.70, -22.04, -18.78, -23.51, -13.86, -23.94, -25.48, -24.77, -21.46, -18.08, 0.016, 0.946, 0.304, 03:43:26.991
224, -20.81, -26.71, -18.78, -22.08, -25.06, -14.77, -16.70, -22.04, -18.80, -23.40, -13.79, -23.80, -25.46, -24.65, -21.10, -18.04, 0.000, 0.000, 0.000, 03:43:26.996
225, -20.90, -26.49, -18.44, -22.11, -24.94, -15.00, -16.72, -22.04, -18.80, -23.40, -13.79, -23.80, -25.46, -24.65, -21.10, -18.04, 0.000, 0.000, 0.000, 03:43:27.000
226, -20.90, -26.49, -18.44, -22.11, -24.94, -15.00, -16.72, -22.04, -18.82, -23.54, -13.97, -23.89, -25.37, -24.72, -21.23, -18.26, 0.000, 0.000, 0.000, 03:43:27.004
227, -20.70, -26.67, -18.55, -22.13, -25.17, -15.02, -16.74, -22.28, -18.82, -23.54, -13.97, -23.89, -25.37, -24.72, -21.23, -18.26, 0.000, 0.000, 0.000, 03:43:27.009
228, -20.70, -26.67, -18.55, -22.13, -25.17, -15.02, -16.74, -22.28, -18.95, -23.38, -13.81, -24.05, -25.48, -24.68, -21.14, -17.95, 0.000, 0.000, 0.000, 03:43:27.013
229, -20.61, -26.49, -18.66, -21.90, -25.15, -14.98, -16.56, -22.35, -18.95, -23.38, -13.81, -24.05, -25.48, -24.68, -21.14, -17.95, 0.000, 0.000, 0.000, 03:43:27.017
230, -20.61, -26.49, -18.66, -21.90, -25.15, -14.98, -16.56, -22.35, -18.91, -23.51, -13.97, -24.10, -25.41, -24.63, -20.97, -17.79, 0.000, 0.000, 0.000, 03:43:27.021
231, -20.94, -26.42, -18.66, -22.11, -25.10, -15.04, -16.67, -22.13, -18.91, -23.51, -13.97, -24.10, -25.41, -24.63, -20.97, -17.79, 0.000, 0.000, 0.000, 03:43:27.025
232, -20.94, -26.42, -18.66, -22.11, -25.10, -15.04, -16.67, -22.13, -18.98, -23.54, -13.88, -23.78, -25.39, -24.90, -21.14, -17.88, 0.000, 0.000, 0.000, 03:43:27.028
233, -20.76, -26.69, -18.46, -22.11, -25.24, -14.98, -16.54, -21.95, -18.98, -23.54, -13.88, -23.78, -25.39, -24.90, -21.14, -17.88, 0.012, 0.948, 0.312, 03:43:27.033
234, -20.76, -26.69, -18.46, -22.11, -25.24, -14.98, -16.54, -21.95, -18.84, -23.36, -13.90, -24.16, -25.30, -24.81, -21.12, -17.84, 0.000, 0.000, 0.000, 03:43:27.036
235, -20.61, -26.55, -18.51, -21.93, -25.21, -15.18, -16.94, -21.97, -18.84, -23.36, -13.90, -24.16, -25.30, -24.81, -21.12, -17.84, 0.000, 0.000, 0.000, 03:43:27.041
236, -20.61, -26.55, -18.51, -21.93, -25.21, -15.18, -16.94, -21.97, -18.95, -23.36, -13.84, -24.03, -25.46, -24.83, -21.14, -17.93, 0.000, 0.000, 0.000, 03:43:27.044
237, -20.72, -26.53, -18.53, -22.17, -24.81, -14.73, -16.88, -22.08, -18.95, -23.36, -13.84, -24.03, -25.46, -24.83, -21.14, -17.93, 0.000, 0.000, 0.000, 03:43:27.048
238, -20.72, -26.53, -18.53, -22.17, -24.81, -14.73, -16.88, -22.08, -18.82, -23.58, -13.77, -23.76, -25.37, -24.72, -21.12, -18.06, 0.000, 0.000, 0.000, 03:43:27.052
239, -20.59, -26.46, -18.53, -22.13, -24.97, -14.84, -16.88, -22.28, -18.82, -23.58, -13.77, -23.76, -25.37, -24.72, -21.12, -18.06, 0.000, 0.000, 0.000, 03:43:27.056
240, -20.59, -26.46, -18.53, -22.13, -24.97, -14.84, -16.88, -22.28, -18.89, -23.69, -13.77, -23.96, -25.48, -24.79, -20.92, -18.10, 0.000, 0.000, 0.000, 03:43:27.061
241, -20.68, -26.51, -18.42, -22.13, -25.06, -15.07, -16.90, -22.40, -18.89, -23.69, -13.77, -23.96, -25.48, -24.79, -20.92, -18.10, 0.000, 0.000, 0.000, 03:43:27.064
242, -20.68, -26.51, -18.42, -22.13, -25.06, -15.07, -16.90, -22.40, -18.89, -23.54, -13.95, -24.03, -25.28, -24.74, -21.12, -18.08, 0.000, 0.000, 0.000, 03:43:27.068
243, -20.70, -26.69, -18.57, -22.04, -25.08, -14.93, -16.92, -22.02, -18.89, -23.54, -13.95, -24.03, -25.28, -24.74, -21.12, -18.08, 0.012, 0.936, 0.306, 03:43:27.071
244, -20.70, -26.69, -18.57, -22.04, -25.08, -14.93, -16.92, -22.02, -19.09, -23.36, -13.79, -24.05, -25.48, -24.83, -21.21, -18.04, 0.000, 0.000, 0.000, 03:43:27.075
245, -20.54, -26.67, -18.64, -22.02, -24.94, -14.93, -17.12, -21.90, -19.09, -23.36, -13.79, -24.05, -25.48, -24.83, -21.21, -18.04, 0.000, 0.000, 0.000, 03:43:27.080
246, -20.54, -26.67, -18.64, -22.02, -24.94, -14.93, -17.12, -21.90, -18.93, -23.49, -13.95, -24.05, -25.15, -24.94, -21.19, -17.93, 0.000, 0.000, 0.000, 03:43:27.085
247, -20.61, -26.73, -18.60, -22.02, -24.86, -14.80, -16.94, -21.97, -18.93, -23.49, -13.95, -24.05, -25.15, -24.94, -21.19, -17.93, 0.000, 0.000, 0.000, 03:43:27.088
248, -20.61, -26.73, -18.60, -22.02, -24.86, -14.80, -16.94, -21.97, -18.75, -23.51, -14.06, -23.94, -25.21, -24.83, -21.23, -18.06, 0.000, 0.000, 0.000, 03:43:27.093
249, -20.74, -26.62, -18.53, -22.04, -25.21, -15.11, -16.99, -22.11, -18.75, -23.51, -14.06, -23.94, -25.21, -24.83, -21.23, -18.06, 0.000, 0.000, 0.000, 03:43:27.095
250, -20.74, -26.62, -18.53, -22.04, -25.21, -15.11, -16.99, -22.11, -18.89, -23.51, -13.90, -24.05, -25.41, -24.79, -21.35, -18.15, 0.000, 0.000, 0.000, 03:43:27.099
251, -20.61, -26.67, -18.73, -22.13, -24.90, -14.98, -17.01, -22.06, -18.89, -23.51, -13.90, -24.05, -25.41, -24.79, -21.35, -18.15, 0.000, 0.000, 0.000, 03:43:27.104
252, -20.61, -26.67, -18.73, -22.13, -24.90, -14.98, -17.01, -22.06, -19.00, -23.40, -13.93, -23.96, -25.17, -24.72, -21.10, -18.13, 0.000, 0.000, 0.000, 03:43:27.107
253, -20.70, -26.80, -18.48, -21.86, -24.99, -14.91, -16.74, -21.99, -19.00, -23.40, -13.93, -23.96, -25.17, -24.72, -21.10, -18.13, 0.012, 0.932, 0.314, 03:43:27.113
254, -20.70, -26.80, -18.48, -21.86, -24.99, -14.91, -16.74, -21.99, -18.80, -23.47, -13.90, -23.96, -25.39, -24.77, -21.26, -18.04, 0.000, 0.000, 0.000, 03:43:27.116
255, -20.79, -26.38, -18.51, -22.08, -25.15, -14.95, -16.72, -22.20, -18.80, -23.47, -13.90, -23.96, -25.39, -24.77, -21.26, -18.04, 0.000, 0.000, 0.000, 03:43:27.120
0, -20.79, -26.38, -18.51, -22.08, -25.15, -14.95, -16.72, -22.20, -18.84, -23.54, -13.84, -24.21, -25.53, -24.77, -21.35, -18.04, 0.000, 0.000, 0.000, 03:43:27.123
1, -20.74, -26.67, -18.51, -21.99, -25.06, -15.09, -16.99, -22.02, -18.84, -23.54, -13.84, -24.21, -25.53, -24.77, -21.35, -18.04, 0.000, 0.000, 0.000, 03:43:27.127
2, -20.74, -26.67, -18.51, -21.99, -25.06, -15.09, -16.99, -22.02, -18.64, -23.42, -13.93, -23.92, -25.41, -24.83, -21.14, -18.15, 0.000, 0.000, 0.000, 03:43:27.132
3, -20.63, -26.69, -18.73, -22.02, -25.10, -14.84, -16.67, -22.06, -18.64, -23.42, -13.93, -23.92, -25.41, -24.83, -21.14, -18.15, 0.000, 0.000, 0.000, 03:43:27.135
4, -20.63, -26.69, -18.73, -22.02, -25.10, -14.84, -16.67, -22.06, -19.02, -23.25, -13.97, -23.94, -25.55, -24.81, -20.99, -18.06, 0.000, 0.000, 0.000, 03:43:27.140
5, -20.83, -26.69, -18.55, -22.26, -25.03, -15.07, -16.76, -21.99, -19.02, -23.25, -13.97, -23.94, -25.55, -24.81, -20.99, -18.06, 0.000, 0.000, 0.000, 03:43:27.145
6, -20.83, -26.69, -18.55, -22.26, -25.03, -15.07, -16.76, -21.99, -18.98, -23.13, -14.06, -23.96, -25.35, -24.77, -21.03, -18.06, 0.020, 0.930, 0.298, 03:43:27.148
7, -20.56, -26.67, -18.55, -22.04, -24.83, -15.00, -16.65, -22.06, -18.98, -23.13, -14.06, -23.96, -25.35, -24.77, -21.03, -18.06, 0.000, 0.000, 0.000, 03:43:27.152
8, -20.56, -26.67, -18.55, -22.04, -24.83, -15.00, -16.65, -22.06, -18.93, -23.42, -13.88, -23.94, -25.28, -24.72, -21.08, -18.19, 0.000, 0.000, 0.000, 03:43:27.155
9, -20.79, -26.29, -18.57, -22.15, -25.08, -15.00, -16.72, -22.22, -18.93, -23.42, -13.88, -23.94, -25.28, -24.72, -21.08, -18.19, 0.000, 0.000, 0.000, 03:43:27.160
10, -20.79, -26.29, -18.57, -22.15, -25.08, -15.00, -16.72, -22.22, -18.82, -23.69, -13.90, -23.98, -25.44, -25.06, -21.08, -18.17, 0.000, 0.000, 0.000, 03:43:27.166
11, -20.68, -26.38, -18.55, -22.02, -25.15, -15.02, -16.81, -22.02, -18.82, -23.69, -13.90, -23.98, -25.44, -25.06, -21.08, -18.17, 0.000, 0.000, 0.000, 03:43:27.168
12, -20.68, -26.38, -18.55, -22.02, -25.15, -15.02, -16.81, -22.02, -18.89, -23.47, -14.01, -24.14, -25.37, -24.81, -21.32, -18.19, 0.000, 0.000, 0.000, 03:43:27.173
13, -20.85, -26.64, -18.84, -22.04, -25.17, -14.98, -16.83, -21.99, -18.89, -23.47, -14.01, -24.14, -25.37, -24.81, -21.32, -18.19, 0.000, 0.000, 0.000, 03:43:27.176
14, -20.85, -26.64, -18.84, -22.04, -25.17, -14.98, -16.83, -21.99, -18.80, -23.47, -13.84, -24.03, -25.41, -24.79, -21.26, -17.88, 0.000, 0.000, 0.000, 03:43:27.180
15, -20.76, -26.62, -18.57, -22.15, -25.06, -14.91, -16.65, -22.08, -18.80, -23.47, -13.84, -24.03, -25.41, -24.79, -21.26, -17.88, 0.000, 0.000, 0.000, 03:43:27.187
16, -20.76, -26.62, -18.57, -22.15, -25.06, -14.91, -16.65, -22.08, -18.80, -23.16, -13.90, -24.03, -25.24, -24.70, -21.32, -18.10, 0.008, 0.940, 0.302, 03:43:27.191
17, -20.59, -26.55, -18.46, -22.04, -24.92, -15.11, -16.56, -22.08, -18.80, -23.16, -13.90, -24.03, -25.24, -24.70, -21.32, -18.10, 0.000, 0.000, 0.000, 03:43:27.194
18, -20.59, -26.55, -18.46, -22.04, -24.92, -15.11, -16.56, -22.08, -18.95, -23.34, -14.10, -24.05, -25.35, -24.77, -21.28, -18.19, 0.000, 0.000, 0.000, 03:43:27.198
19, -20.88, -26.69, -18.37, -21.93, -24.97, -14.95, -16.83, -22.17, -18.95, -23.34, -14.10, -24.05, -25.35, -24.77, -21.28, -18.19, 0.000, 0.000, 0.000, 03:43:27.200
20, -20.88, -26.69, -18.37, -21.93, -24.97, -14.95, -16.83, -22.17, -18.71, -23.38, -13.86, -23.98, -25.35, -24.72, -21.37, -17.90, 0.000, 0.000, 0.000, 03:43:27.204
21, -20.59, -26.82, -18.44, -21.97, -24.77, -14.95, -16.61, -22.04, -18.71, -23.38, -13.86, -23.98, -25.35, -24.72, -21.37, -17.90, 0.000, 0.000, 0.000, 03:43:27.207
22, -20.59, -26.82, -18.44, -21.97, -24.77, -14.95, -16.61, -22.04, -19.02, -23.40, -13.99, -24.05, -25.53, -24.90, -21.21, -18.13, 0.000, 0.000, 0.000, 03:43:27.212
23, -20.90, -26.49, -18.40, -22.20, -25.01, -14.98, -16.70, -22.04, -19.02, -23.40, -13.99, -24.05, -25.53, -24.90, -21.21, -18.13, 0.000, 0.000, 0.000, 03:43:27.215
24, -20.90, -26.49, -18.40, -22.20, -25.01, -14.98, -16.70, -22.04, -18.73, -23.38, -13.86, -23.87, -25.53, -24.81, -21.23, -18.17, 0.000, 0.000, 0.000, 03:43:27.221
25, -21.03, -26.62, -18.46, -22.06, -24.99, -15.22, -16.63, -22.15, -18.73, -23.38, -13.86, -23.87, -25.53, -24.81, -21.23, -18.17, 0.000, 0.000, 0.000, 03:43:27.225
26, -21.03, -26.62, -18.46, -22.06, -24.99, -15.22, -16.63, -22.15, -18.73, -23.45, -13.81, -23.96, -25.39, -24.74, -21.21, -18.22, 0.016, 0.928, 0.292, 03:43:27.228
27, -20.88, -26.53, -18.51, -21.88, -25.01, -14.95, -16.83, -21.88, -18.73, -23.45, -13.81, -23.96, -25.39, -24.74, -21.21, -18.22, 0.000, 0.000, 0.000, 03:43:27.232
28, -20.88, -26.53, -18.51, -21.88, -25.01, -14.95, -16.83, -21.88, -19.00, -23.29, -13.88, -24.18, -25.62, -24.79, -20.97, -18.08, 0.000, 0.000, 0.000, 03:43:27.237
29, -20.74, -26.42, -18.60, -21.97, -24.99, -14.98, -16.65, -22.13, -19.00, -23.29, -13.88, -24.18, -25.62, -24.79, -20.97, -18.08, 0.000, 0.000, 0.000, 03:43:27.240
30, -20.74, -26.42, -18.60, -21.97, -24.99, -14.98, -16.65, -22.13, -18.98, -23.51, -13.95, -24.03, -25.24, -24.88, -21.30, -18.15, 0.000, 0.000, 0.000, 03:43:27.244
31, -20.83, -26.49, -18.57, -22.26, -24.72, -14.93, -16.72, -22.04, -18.98, -23.51, -13.95, -24.03, -25.24, -24.88, -21.30, -18.15, 0.000, 0.000, 0.000, 03:43:27.249
32, -20.83, -26.49, -18.57, -22.26, -24.72, -14.93, -16.72, -22.04, -18.91, -23.40, -13.81, -24.03, -25.35, -24.94, -21.35, -18.04, 0.000, 0.000, 0.000, 03:43:27.253
33, -20.61, -26.71, -18.53, -22.08, -25.03, -14.89, -16.88, -22.33, -18.91, -23.40, -13.81, -24.03, -25.35, -24.94, -21.35, -18.04, 0.000, 0.000, 0.000, 03:43:27.256
34, -20.61, -26.71, -18.53, -22.08, -25.03, -14.89, -16.88, -22.33, -18.78, -23.25, -14.01, -23.85, -25.48, -24.79, -21.26, -18.06, 0.000, 0.000, 0.000, 03:43:27.260
35, -20.81, -26.69, -18.48, -22.26, -24.97, -14.84, -16.67, -22.42, -18.78, -23.25, -14.01, -23.85, -25.48, -24.79, -21.26, -18.06, 0.000, 0.000, 0.000, 03:43:27.263
36, -20.81, -26.69, -18.48, -22.26, -24.97, -14.84, -16.67, -22.42, -18.69, -23.42, -13.81, -24.12, -25.28, -24.72, -21.28, -18.06, 0.014, 0.936, 0.304, 03:43:27.268
37, -20.92, -26.73, -18.48, -22.22, -25.15, -14.93, -16.63, -21.93, -18.69, -23.42, -13.81, -24.12, -25.28, -24.72, -21.28, -18.06, 0.000, 0.000, 0.000, 03:43:27.272
38, -20.92, -26.73, -18.48, -22.22, -25.15, -14.93, -16.63, -21.93, -18.82, -23.45, -13.79, -23.92, -25.39, -24.70, -21.37, -17.97, 0.000, 0.000, 0.000, 03:43:27.279
39, -20.79, -26.71, -18.46, -22.04, -24.99, -14.77, -16.79, -22.08, -18.82, -23.45, -13.79, -23.92, -25.39, -24.70, -21.37, -17.97, 0.000, 0.000, 0.000, 03:43:27.282
40, -20.79, -26.71, -18.46, -22.04, -24.99, -14.77, -16.79, -22.08, -18.78, -23.42, -13.77, -24.05, -25.35, -24.68, -21.14, -17.88, 0.000, 0.000, 0.000, 03:43:27.284
41, -20.74, -26.42, -18.51, -21.97, -24.92, -14.80, -16.58, -22.11, -18.78, -23.42, -13.77, -24.05, -25.35, -24.68, -21.14, -17.88, 0.000, 0.000, 0.000, 03:43:27.289
42, -20.74, -26.42, -18.51, -21.97, -24.92, -14.80, -16.58, -22.11, -18.93, -23.56, -13.84, -23.92, -25.39, -24.97, -21.14, -18.06, 0.000, 0.000, 0.000, 03:43:27.292
43, -20.79, -26.53, -18.51, -22.08, -25.21, -14.95, -16.58, -21.88, -18.93, -23.56, -13.84, -23.92, -25.39, -24.97, -21.14, -18.06, 0.000, 0.000, 0.000, 03:43:27.295
44, -20.79, -26.53, -18.51, -22.08, -25.21, -14.95, -16.58, -21.88, -18.78, -23.54, -14.17, -23.89, -25.32, -24.81, -21.10, -18.04, 0.000, 0.000, 0.000, 03:43:27.300
45, -20.76, -26.64, -18.55, -22.04, -24.99, -15.02, -16.72, -22.04, -18.78, -23.54, -14.17, -23.89, -25.32, -24.81, -21.10, -18.04, 0.000, 0.000, 0.000, 03:43:27.303
46, -20.76, -26.64, -18.55, -22.04, -24.99, -15.02, -16.72, -22.04, -18.86, -23.38, -14.01, -24.05, -25.68, -24.88, -21.23, -17.97, 0.020, 0.932, 0.296, 03:43:27.308
47, -20.81, -26.62, -18.62, -21.97, -24.83, -15.02, -16.90, -22.04, -18.86, -23.38, -14.01, -24.05, -25.68, -24.88, -21.23, -17.97, 0.000, 0.000, 0.000, 03:43:27.312
48, -20.81, -26.62, -18.62, -21.97, -24.83, -15.02, -16.90, -22.04, -18.82, -23.47, -14.01, -23.78, -25.46, -24.92, -21.17, -18.10, 0.000, 0.000, 0.000, 03:43:27.315
49, -20.72, -26.58, -18.66, -21.88, -24.90, -14.75, -16.58, -22.11, -18.82, -23.47, -14.01, -23.78, -25.46, -24.92, -21.17, -18.10, 0.000, 0.000, 0.000, 03:43:27.320
50, -20.72, -26.58, -18.66, -21.88, -24.90, -14.75, -16.58, -22.11, -18.80, -23.58, -13.95, -23.92, -25.35, -24.81, -21.19, -17.95, 0.000, 0.000, 0.000, 03:43:27.324
51, -21.10, -26.60, -18.57, -22.22, -25.06, -14.98, -16.83, -22.06, -18.80, -23.58, -13.95, -23.92, -25.35, -24.81, -21.19, -17.95, 0.000, 0.000, 0.000, 03:43:27.327
52, -21.10, -26.60, -18.57, -22.22, -25.06, -14.98, -16.83, -22.06, -18.82, -23.54, -13.93, -23.78, -25.37, -24.92, -21.28, -17.99, 0.000, 0.000, 0.000, 03:43:27.332
53, -20.72, -26.20, -18.46, -22.22, -25.01, -14.82, -16.65, -22.04, -18.82, -23.54, -13.93, -23.78, -25.37, -24.92, -21.28, -17.99, 0.000, 0.000, 0.000, 03:43:27.336
54, -20.72, -26.20, -18.46, -22.22, -25.01, -14.82, -16.65, -22.04, -18.98, -23.29, -13.86, -24.05, -25.39, -24.72, -21.23, -18.02, 0.000, 0.000, 0.000, 03:43:27.339
55, -21.03, -26.55, -18.40, -22.22, -24.97, -14.84, -16.83, -22.06, -18.98, -23.29, -13.86, -24.05, -25.39, -24.72, -21.23, -18.02, 0.000, 0.000, 0.000, 03:43:27.343
56, -21.03, -26.55, -18.40, -22.22, -24.97, -14.84, -16.83, -22.06, -18.91, -23.27, -13.99, -24.07, -25.41, -24.56, -21.19, -18.10, 0.022, 0.946, 0.304, 03:43:27.347
57, -20.97, -26.69, -18.51, -22.11, -25.01, -14.75, -16.81, -22.13, -18.91, -23.27, -13.99, -24.07, -25.41, -24.56, -21.19, -18.10, 0.000, 0.000, 0.000, 03:43:27.351
58, -20.97, -26.69, -18.51, -22.11, -25.01, -14.75, -16.81, -22.13, -19.00, -23.42, -14.06, -24.12, -25.26, -24.52, -21.17, -18.10, 0.000, 0.000, 0.000, 03:43:27.356
59, -20.79, -26.58, -18.71, -22.04, -24.97, -14.93, -16.76, -22.24, -19.00, -23.42, -14.06, -24.12, -25.26, -24.52, -21.17, -18.10, 0.000, 0.000, 0.000, 03:43:27.362
60, -20.79, -26.58, -18.71, -22.04, -24.97, -14.93, -16.76, -22.24, -19.04, -23.31, -13.86, -23.85, -25.10, -24.90, -21.06, -18.28, 0.000, 0.000, 0.000, 03:43:27.365
61, -20.83, -26.53, -18.48, -21.93, -25.06, -14.89, -16.65, -21.95, -19.04, -23.31, -13.86, -23.85, -25.10, -24.90, -21.06, -18.28, 0.000, 0.000, 0.000, 03:43:27.368
62, -20.83, -26.53, -18.48, -21.93, -25.06, -14.89, -16.65, -21.95, -19.00, -23.29, -13.88, -24.10, -25.46, -24.88, -21.14, -18.13, 0.000, 0.000, 0.000, 03:43:27.372
63, -20.56, -26.49, -18.46, -21.97, -25.08, -15.20, -16.70, -22.04, -19.00, -23.29, -13.88, -24.10, -25.46, -24.88, -21.14, -18.13, 0.000, 0.000, 0.000, 03:43:27.375
64, -20.56, -26.49, -18.46, -21.97, -25.08, -15.20, -16.70, -22.04, -18.82, -23.29, -13.95, -24.07, -25.44, -24.77, -21.17, -18.10, 0.000, 0.000, 0.000, 03:43:27.380
65, -20.65, -26.58, -18.53, -22.11, -25.21, -14.95, -16.67, -22.20, -18.82, -23.29, -13.95, -24.07, -25.44, -24.77, -21.17, -18.10, 0.018, 0.950, 0.306, 03:43:27.383
66, -20.65, -26.58, -18.53, -22.11, -25.21, -14.95, -16.67, -22.20, -18.69, -23.51, -13.90, -24.01, -25.41, -24.70, -21.01, -18.08, 0.000, 0.000, 0.000, 03:43:27.388
67, -20.94, -26.69, -18.48, -22.13, -24.86, -15.07, -16.76, -22.20, -18.69, -23.51, -13.90, -24.01, -25.41, -24.70, -21.01, -18.08, 0.000, 0.000, 0.000, 03:43:27.390
68, -20.94, -26.69, -18.48, -22.13, -24.86, -15.07, -16.76, -22.20, -18.78, -23.11, -14.01, -24.10, -25.41, -24.61, -21.21, -18.02, 0.000, 0.000, 0.000, 03:43:27.395
69, -20.59, -26.49, -18.57, -22.04, -25.06, -14.77, -16.65, -22.04, -18.78, -23.11, -14.01, -24.10, -25.41, -24.61, -21.21, -18.02, 0.000, 0.000, 0.000, 03:43:27.398
70, -20.59, -26.49, -18.57, -22.04, -25.06, -14.77, -16.65, -22.04, -18.80, -23.47, -13.75, -24.03, -25.37, -24.77, -21.39, -18.06, 0.000, 0.000, 0.000, 03:43:27.403
71, -20.61, -26.51, -18.57, -22.24, -24.88, -14.95, -16.72, -22.13, -18.80, -23.47, -13.75, -24.03, -25.37, -24.77, -21.39, -18.06, 0.000, 0.000, 0.000, 03:43:27.408
72, -20.61, -26.51, -18.57, -22.24, -24.88, -14.95, -16.72, -22.13, -18.86, -23.38, -13.79, -23.92, -25.44, -24.77, -21.37, -18.13, 0.000, 0.000, 0.000, 03:43:27.412
73, -20.83, -26.60, -18.57, -21.99, -24.99, -14.84, -16.74, -21.95, -18.86, -23.38, -13.79, -23.92, -25.44, -24.77, -21.37, -18.13, 0.000, 0.000, 0.000, 03:43:27.416
74, -20.83, -26.60, -18.57, -21.99, -24.99, -14.84, -16.74, -21.95, -18.91, -23.42, -13.81, -23.94, -25.44, -24.77, -21.14, -18.13, 0.000, 0.000, 0.000, 03:43:27.419
75, -20.72, -26.51, -18.57, -22.02, -25.03, -14.89, -16.76, -22.20, -18.91, -23.42, -13.81, -23.94, -25.44, -24.77, -21.14, -18.13, 0.014, 0.956, 0.316, 03:43:27.423
76, -20.72, -26.51, -18.57, -22.02, -25.03, -14.89, -16.76, -22.20, -18.84, -23.67, -13.81, -24.14, -25.37, -24.68, -21.26, -17.81, 0.000, 0.000, 0.000, 03:43:27.426
77, -20.88, -26.51, -18.69, -22.06, -24.99, -14.93, -16.90, -22.11, -18.84, -23.67, -13.81, -24.14, -25.37, -24.68, -21.26, -17.81, 0.000, 0.000, 0.000, 03:43:27.431
78, -20.88, -26.51, -18.69, -22.06, -24.99, -14.93, -16.90, -22.11, -18.89, -23.45, -13.84, -24.03, -25.53, -24.74, -21.39, -17.97, 0.000, 0.000, 0.000, 03:43:27.435
79, -20.79, -26.60, -18.46, -21.99, -25.24, -14.71, -16.88, -22.20, -18.89, -23.45, -13.84, -24.03, -25.53, -24.74, -21.39, -17.97, 0.000, 0.000, 0.000, 03:43:27.440
80, -20.79, -26.60, -18.46, -21.99, -25.24, -14.71, -16.88, -22.20, -18.98, -23.56, -13.75, -23.96, -25.41, -24.77, -21.30, -18.04, 0.000, 0.000, 0.000, 03:43:27.444
81, -20.90, -26.51, -18.42, -22.20, -24.94, -15.00, -16.50, -22.06, -18.98, -23.56, -13.75, -23.96, -25.41, -24.77, -21.30, -18.04, 0.000, 0.000, 0.000, 03:43:27.446
82, -20.90, -26.51, -18.42, -22.20, -24.94, -15.00, -16.50, -22.06, -18.95, -23.58, -13.75, -23.89, -25.53, -24.54, -21.23, -18.04, 0.000, 0.000, 0.000, 03:43:27.451
83, -20.61, -26.35, -18.51, -22.06, -25.01, -14.84, -16.50, -22.37, -18.95, -23.58, -13.75, -23.89, -25.53, -24.54, -21.23, -18.04, 0.000, 0.000, 0.000, 03:43:27.455
84, -20.61, -26.35, -18.51, -22.06, -25.01, -14.84, -16.50, -22.37, -18.93, -23.65, -13.88, -23.98, -25.37, -24.72, -21.26, -17.97, 0.000, 0.000, 0.000, 03:43:27.459
85, -20.88, -26.67, -18.60, -22.04, -25.08, -14.93, -16.52, -21.99, -18.93, -23.65, -13.88, -23.98, -25.37, -24.72, -21.26, -17.97, 0.016, 0.946, 0.296, 03:43:27.463
86, -20.88, -26.67, -18.60, -22.04, -25.08, -14.93, -16.52, -21.99, -18.80, -23.58, -13.70, -23.98, -25.55, -24.81, -21.41, -17.99, 0.000, 0.000, 0.000, 03:43:27.468
87, -20.79, -26.64, -18.46, -22.31, -25.06, -14.71, -16.65, -22.17, -18.80, -23.58, -13.70, -23.98, -25.55, -24.81, -21.41, -17.99, 0.000, 0.000, 0.000, 03:43:27.471
88, -20.79, -26.64, -18.46, -22.31, -25.06, -14.71, -16.65, -22.17, -18.80, -23.56, -13.93, -23.92, -25.37, -24.74, -21.26, -18.04, 0.000, 0.000, 0.000, 03:43:27.475
89, -20.85, -26.42, -18.57, -22.17, -25.15, -14.82, -16.38, -22.24, -18.80, -23.56, -13.93, -23.92, -25.37, -24.74, -21.26, -18.04, 0.000, 0.000, 0.000, 03:43:27.479
90, -20.85, -26.42, -18.57, -22.17, -25.15, -14.82, -16.38, -22.24, -18.82, -23.47, -13.77, -24.21, -25.26, -25.06, -21.06, -18.08, 0.000, 0.000, 0.000, 03:43:27.483
91, -20.68, -26.53, -18.57, -22.04, -25.10, -14.86, -16.61, -22.13, -18.82, -23.47, -13.77, -24.21, -25.26, -25.06, -21.06, -18.08, 0.000, 0.000, 0.000, 03:43:27.487
92, -20.68, -26.53, -18.57, -22.04, -25.10, -14.86, -16.61, -22.13, -18.78, -23.49, -14.04, -23.94, -25.39, -24.74, -21.30, -17.99, 0.000, 0.000, 0.000, 03:43:27.491
93, -20.85, -26.38, -18.44, -21.93, -25.15, -14.73, -16.76, -22.06, -18.78, -23.49, -14.04, -23.94, -25.39, -24.74, -21.30, -17.99, 0.000, 0.000, 0.000, 03:43:27.495
94, -20.85, -26.38, -18.44, -21.93, -25.15, -14.73, -16.76, -22.06, -19.09, -23.42, -13.77, -24.16, -25.32, -24.74, -21.30, -17.90, 0.000, 0.000, 0.000, 03:43:27.499
95, -20.76, -26.49, -18.57, -22.17, -24.97, -15.00, -16.81, -22.04, -19.09, -23.42, -13.77, -24.16, -25.32, -24.74, -21.30, -17.90, 0.014, 0.946, 0.292, 03:43:27.503
96, -20.76, -26.49, -18.57, -22.17, -24.97, -15.00, -16.81, -22.04, -18.91, -23.42, -13.97, -24.18, -25.26, -24.79, -21.14, -18.10, 0.000, 0.000, 0.000, 03:43:27.507
97, -20.94, -26.78, -18.69, -22.24, -24.94, -14.91, -16.76, -22.06, -18.91, -23.42, -13.97, -24.18, -25.26, -24.79, -21.14, -18.10, 0.000, 0.000, 0.000, 03:43:27.511
98, -20.94, -26.78, -18.69, -22.24, -24.94, -14.91, -16.76, -22.06, -18.84, -23.38, -13.57, -23.98, -25.48, -24.74, -21.21, -18.17, 0.000, 0.000, 0.000, 03:43:27.515
99, -20.88, -26.69, -18.62, -22.04, -24.97, -15.09, -16.72, -21.86, -18.84, -23.38, -13.57, -23.98, -25.48, -24.74, -21.21, -18.17, 0.000, 0.000, 0.000, 03:43:27.519
100, -20.88, -26.69, -18.62, -22.04, -24.97, -15.09, -16.72, -21.86, -18.82, -23.60, -13.86, -23.87, -25.39, -24.88, -21.28, -17.84, 0.000, 0.000, 0.000, 03:43:27.523
101, -20.88, -26.53, -18.69, -22.22, -24.88, -14.89, -16.74, -22.11, -18.82, -23.60, -13.86, -23.87, -25.39, -24.88, -21.28, -17.84, 0.000, 0.000, 0.000, 03:43:27.529
102, -20.88, -26.53, -18.69, -22.22, -24.88, -14.89, -16.74, -22.11, -18.93, -23.34, -13.86, -23.89, -25.39, -24.72, -21.10, -18.17, 0.000, 0.000, 0.000, 03:43:27.532
103, -20.81, -26.49, -18.42, -21.97, -25.06, -15.00, -16.56, -22.13, -18.93, -23.34, -13.86, -23.89, -25.39, -24.72, -21.10, -18.17, 0.000, 0.000, 0.000, 03:43:27.536
104, -20.81, -26.49, -18.42, -21.97, -25.06, -15.00, -16.56, -22.13, -18.75, -23.27, -14.10, -23.98, -25.46, -24.70, -21.14, -17.93, 0.000, 0.000, 0.000, 03:43:27.539
105, -20.76, -26.62, -18.44, -21.86, -25.15, -14.98, -16.63, -21.82, -18.75, -23.27, -14.10, -23.98, -25.46, -24.70, -21.14, -17.93, 0.014, 0.956, 0.294, 03:43:27.542
106, -20.76, -26.62, -18.44, -21.86, -25.15, -14.98, -16.63, -21.82, -18.89, -23.49, -13.95, -23.98, -25.37, -24.70, -21.39, -18.04, 0.000, 0.000, 0.000, 03:43:27.547
107, -20.88, -26.62, -18.80, -21.93, -25.15, -15.07, -16.56, -21.93, -18.89, -23.49, -13.95, -23.98, -25.37, -24.70, -21.39, -18.04, 0.000, 0.000, 0.000, 03:43:27.551
108, -20.88, -26.62, -18.80, -21.93, -25.15, -15.07, -16.56, -21.93, -18.71, -23.47, -13.97, -23.98, -25.46, -24.77, -21.14, -18.15, 0.000, 0.000, 0.000, 03:43:27.555
109, -20.61, -26.51, -18.57, -22.37, -25.03, -14.89, -16.67, -22.02, -18.71, -23.47, -13.97, -23.98, -25.46, -24.77, -21.14, -18.15, 0.000, 0.000, 0.000, 03:43:27.559
110, -20.61, -26.51, -18.57, -22.37, -25.03, -14.89, -16.67, -22.02, -18.93, -23.25, -13.88, -23.92, -25.26, -24.86, -21.12, -18.22, 0.000, 0.000, 0.000, 03:43:27.564
111, -20.81, -26.64, -18.55, -22.26, -25.19, -14.91, -17.01, -22.06, -18.93, -23.25, -13.88, -23.92, -25.26, -24.86, -21.12, -18.22, 0.000, 0.000, 0.000, 03:43:27.567
112, -20.81, -26.64, -18.55, -22.26, -25.19, -14.91, -17.01, -22.06, -18.86, -23.42, -13.95, -23.89, -25.24, -24.90, -21.10, -18.02, 0.000, 0.000, 0.000, 03:43:27.570
113, -20.61, -26.46, -18.44, -22.13, -25.12, -14.80, -16.83, -22.11, -18.86, -23.42, -13.95, -23.89, -25.24, -24.90, -21.10, -18.02, 0.000, 0.000, 0.000, 03:43:27.575
114, -20.61, -26.46, -18.44, -22.13, -25.12, -14.80, -16.83, -22.11, -18.66, -23.40, -13.77, -23.89, -25.46, -24.61, -21.06, -18.02, 0.000, 0.000, 0.000, 03:43:27.579
115, -20.74, -26.62, -18.22, -22.06, -25.08, -15.02, -16.79, -22.04, -18.66, -23.40, -13.77, -23.89, -25.46, -24.61, -21.06, -18.02, 0.014, 0.946, 0.288, 03:43:27.586
116, -20.74, -26.62, -18.22, -22.06, -25.08, -15.02, -16.79, -22.04, -18.86, -23.56, -13.86, -23.92, -25.50, -24.83, -21.10, -18.10, 0.000, 0.000, 0.000, 03:43:27.588
117, -21.01, -26.53, -18.46, -22.33, -25.06, -14.80, -16.85, -22.11, -18.86, -23.56, -13.86, -23.92, -25.50, -24.83, -21.10, -18.10, 0.000, 0.000, 0.000, 03:43:27.592
118, -21.01, -26.53, -18.46, -22.33, -25.06, -14.80, -16.85, -22.11, -18.86, -23.40, -13.95, -23.87, -25.37, -24.79, -21.39, -18.13, 0.000, 0.000, 0.000, 03:43:27.595
119, -20.94, -26.53, -18.55, -22.04, -25.01, -14.93, -16.61, -22.06, -18.86, -23.40, -13.95, -23.87, -25.37, -24.79, -21.39, -18.13, 0.000, 0.000, 0.000, 03:43:27.599
120, -20.94, -26.53, -18.55, -22.04, -25.01, -14.93, -16.61, -22.06, -18.89, -23.45, -13.77, -23.92, -25.30, -24.86, -21.23, -18.13, 0.000, 0.000, 0.000, 03:43:27.603
121, -20.85, -26.58, -18.66, -22.08, -25.03, -14.93, -16.76, -22.24, -18.89, -23.45, -13.77, -23.92, -25.30, -24.86, -21.23, -18.13, 0.000, 0.000, 0.000, 03:43:27.607
122, -20.85, -26.58, -18.66, -22.08, -25.03, -14.93, -16.76, -22.24, -18.80, -23.47, -13.84, -24.07, -25.26, -24.52, -21.21, -18.10, 0.000, 0.000, 0.000, 03:43:27.612
123, -20.79, -26.69, -18.40, -21.99, -25.12, -14.80, -16.79, -21.95, -18.80, -23.47, -13.84, -24.07, -25.26, -24.52, -21.21, -18.10, 0.000, 0.000, 0.000, 03:43:27.615
124, -20.79, -26.69, -18.40, -21.99, -25.12, -14.80, -16.79, -21.95, -18.75, -23.49, -13.93, -24.03, -25.26, -24.90, -21.12, -18.08, 0.012, 0.942, 0.294, 03:43:27.619
125, -20.76, -26.62, -18.66, -21.84, -24.72, -14.89, -16.52, -22.24, -18.75, -23.49, -13.93, -24.03, -25.26, -24.90, -21.12, -18.08, 0.000, 0.000, 0.000, 03:43:27.623
126, -20.76, -26.62, -18.66, -21.84, -24.72, -14.89, -16.52, -22.24, -18.84, -23.51, -13.99, -24.14, -25.24, -24.70, -21.35, -18.10, 0.000, 0.000, 0.000, 03:43:27.628
127, -20.68, -26.29, -18.64, -22.06, -24.92, -14.77, -16.67, -22.26, -18.84, -23.51, -13.99, -24.14, -25.24, -24.70, -21.35, -18.10, 0.000, 0.000, 0.000, 03:43:27.631
128, -20.68, -26.29, -18.64, -22.06, -24.92, -14.77, -16.67, -22.26, -18.93, -23.47, -13.97, -23.89, -25.30, -24.81, -21.19, -17.97, 0.000, 0.000, 0.000, 03:43:27.637
129, -20.70, -26.46, -18.42, -22.17, -24.97, -14.95, -16.63, -22.06, -18.93, -23.47, -13.97, -23.89, -25.30, -24.81, -21.19, -17.97, 0.000, 0.000, 0.000, 03:43:27.639
130, -20.70, -26.46, -18.42, -22.17, -24.97, -14.95, -16.63, -22.06, -18.82, -23.72, -14.04, -24.21, -25.30, -24.79, -21.10, -17.93, 0.000, 0.000, 0.000, 03:43:27.643
131, -20.68, -26.58, -18.62, -22.04, -25.12, -15.02, -16.50, -22.15, -18.82, -23.72, -14.04, -24.21, -25.30, -24.79, -21.10, -17.93, 0.000, 0.000, 0.000, 03:43:27.646
132, -20.68, -26.58, -18.62, -22.04, -25.12, -15.02, -16.50, -22.15, -18.82, -23.60, -14.04, -23.96, -25.19, -24.72, -21.26, -18.06, 0.000, 0.000, 0.000, 03:43:27.650
133, -20.63, -26.51, -18.28, -22.28, -24.88, -14.86, -16.63, -22.13, -18.82, -23.60, -14.04, -23.96, -25.19, -24.72, -21.26, -18.06, 0.000, 0.000, 0.000, 03:43:27.655
134, -20.63, -26.51, -18.28, -22.28, -24.88, -14.86, -16.63, -22.13, -18.93, -23.49, -13.90, -23.98, -25.26, -24.92, -21.23, -17.90, 0.012, 0.940, 0.290, 03:43:27.658
135, -20.99, -26.38, -18.40, -22.08, -24.86, -14.86, -16.74, -22.04, -18.93, -23.49, -13.90, -23.98, -25.26, -24.92, -21.23, -17.90, 0.000, 0.000, 0.000, 03:43:27.664
136, -20.99, -26.38, -18.40, -22.08, -24.86, -14.86, -16.74, -22.04, -18.93, -23.36, -13.81, -24.03, -25.39, -25.06, -21.30, -17.99, 0.000, 0.000, 0.000, 03:43:27.667
137, -20.70, -26.53, -18.64, -22.06, -24.81, -14.95, -16.56, -22.02, -18.93, -23.36, -13.81, -24.03, -25.39, -25.06, -21.30, -17.99, 0.000, 0.000, 0.000, 03:43:27.671
138, -20.70, -26.53, -18.64, -22.06, -24.81, -14.95, -16.56, -22.02, -18.82, -23.67, -13.95, -23.72, -25.59, -24.79, -21.06, -18.37, 0.000, 0.000, 0.000, 03:43:27.674
139, -20.68, -26.55, -18.62, -22.02, -24.92, -14.93, -16.58, -22.11, -18.82, -23.67, -13.95, -23.72, -25.59, -24.79, -21.06, -18.37, 0.000, 0.000, 0.000, 03:43:27.678
140, -20.68, -26.55, -18.62, -22.02, -24.92, -14.93, -16.58, -22.11, -18.75, -23.51, -13.81, -23.98, -25.35, -24.79, -21.08, -18.26, 0.000, 0.000, 0.000, 03:43:27.682
141, -20.63, -26.64, -18.51, -22.06, -25.12, -14.91, -16.81, -21.86, -18.75, -23.51, -13.81, -23.98, -25.35, -24.79, -21.08, -18.26, 0.000, 0.000, 0.000, 03:43:27.687
142, -20.63, -26.64, -18.51, -22.06, -25.12, -14.91, -16.81, -21.86, -19.11, -23.47, -14.06, -24.05, -25.37, -24.79, -21.10, -17.93, 0.000, 0.000, 0.000, 03:43:27.691
143, -20.83, -26.55, -18.53, -22.13, -25.10, -14.89, -16.81, -22.28, -19.11, -23.47, -14.06, -24.05, -25.37, -24.79, -21.10, -17.93, 0.000, 0.000, 0.000, 03:43:27.695
144, -20.83, -26.55, -18.53, -22.13, -25.10, -14.89, -16.81, -22.28, -19.04, -23.49, -13.97, -24.23, -25.30, -24.83, -21.28, -18.10, 0.014, 0.938, 0.292, 03:43:27.699
145, -20.83, -26.55, -18.33, -21.90, -25.03, -14.89, -16.63, -21.97, -19.04, -23.49, -13.97, -24.23, -25.30, -24.83, -21.28, -18.10, 0.000, 0.000, 0.000, 03:43:27.702
146, -20.83, -26.55, -18.33, -21.90, -25.03, -14.89, -16.63, -21.97, -18.78, -23.67, -14.01, -23.96, -25.37, -24.74, -21.10, -18.08, 0.000, 0.000, 0.000, 03:43:27.706
147, -20.63, -26.62, -18.31, -22.26, -24.97, -14.84, -16.81, -22.20, -18.78, -23.67, -14.01, -23.96, -25.37, -24.74, -21.10, -18.08, 0.000, 0.000, 0.000, 03:43:27.711
148, -20.63, -26.62, -18.31, -22.26, -24.97, -14.84, -16.81, -22.20, -18.91, -23.58, -13.90, -24.14, -25.44, -24.90, -21.32, -18.06, 0.000, 0.000, 0.000, 03:43:27.714
149, -20.74, -26.64, -18.55, -21.90, -24.83, -15.04, -16.74, -22.17, -18.91, -23.58, -13.90, -24.14, -25.44, -24.90, -21.32, -18.06, 0.000, 0.000, 0.000, 03:43:27.720
150, -20.74, -26.64, -18.55, -21.90, -24.83, -15.04, -16.74, -22.17, -18.98, -23.34, -13.84, -24.03, -25.62, -24.77, -21.19, -17.90, 0.000, 0.000, 0.000, 03:43:27.725
151, -20.81, -26.44, -18.57, -21.99, -24.94, -15.22, -16.54, -22.04, -18.98, -23.34, -13.84, -24.03, -25.62, -24.77, -21.19, -17.90, 0.000, 0.000, 0.000, 03:43:27.727
152, -20.81, -26.44, -18.57, -21.99, -24.94, -15.22, -16.54, -22.04, -18.95, -23.49, -13.90, -23.98, -25.68, -24.74, -21.19, -17.93, 0.000, 0.000, 0.000, 03:43:27.730
153, -20.85, -26.44, -18.55, -22.22, -25.06, -15.02, -16.61, -22.06, -18.95, -23.49, -13.90, -23.98, -25.68, -24.74, -21.19, -17.93, 0.000, 0.000, 0.000, 03:43:27.734
154, -20.85, -26.44, -18.55, -22.22, -25.06, -15.02, -16.61, -22.06, -18.64, -23.60, -13.93, -23.89, -25.28, -24.83, -21.12, -18.02, 0.014, 0.934, 0.290, 03:43:27.739
155, -20.72, -26.53, -18.62, -22.35, -25.26, -14.95, -16.47, -22.06, -18.64, -23.60, -13.93, -23.89, -25.28, -24.83, -21.12, -18.02, 0.000, 0.000, 0.000, 03:43:27.742
156, -20.72, -26.53, -18.62, -22.35, -25.26, -14.95, -16.47, -22.06, -18.86, -23.36, -13.95, -24.14, -25.44, -24.74, -21.35, -18.13, 0.000, 0.000, 0.000, 03:43:27.747
157, -20.74, -26.71, -18.53, -22.31, -25.06, -15.00, -16.74, -22.15, -18.86, -23.36, -13.95, -24.14, -25.44, -24.74, -21.35, -18.13, 0.000, 0.000, 0.000, 03:43:27.751
158, -20.74, -26.71, -18.53, -22.31, -25.06, -15.00, -16.74, -22.15, -18.98, -23.51, -13.90, -24.10, -25.26, -24.70, -21.14, -18.17, 0.000, 0.000, 0.000, 03:43:27.755
159, -20.76, -26.49, -18.48, -21.95, -25.06, -14.89, -16.83, -22.11, -18.98, -23.51, -13.90, -24.10, -25.26, -24.70, -21.14, -18.17, 0.000, 0.000, 0.000, 03:43:27.758
160, -20.76, -26.49, -18.48, -21.95, -25.06, -14.89, -16.83, -22.11, -18.93, -23.54, -13.90, -24.05, -25.28, -24.68, -21.21, -18.15, 0.000, 0.000, 0.000, 03:43:27.762
161, -20.72, -26.71, -18.35, -22.26, -25.30, -14.80, -16.54, -22.17, -18.93, -23.54, -13.90, -24.05, -25.28, -24.68, -21.21, -18.15, 0.000, 0.000, 0.000, 03:43:27.767
162, -20.72, -26.71, -18.35, -22.26, -25.30, -14.80, -16.54, -22.17, -19.18, -23.49, -13.99, -24.05, -25.35, -24.70, -21.23, -18.15, 0.000, 0.000, 0.000, 03:43:27.770
163, -20.59, -26.40, -18.44, -22.08, -24.97, -14.71, -16.61, -22.35, -19.18, -23.49, -13.99, -24.05, -25.35, -24.70, -21.23, -18.15, 0.000, 0.000, 0.000, 03:43:27.775
164, -20.59, -26.40, -18.44, -22.08, -24.97, -14.71, -16.61, -22.35, -18.93, -23.54, -13.99, -23.96, -25.26, -24.79, -21.17, -17.97, 0.018, 0.934, 0.298, 03:43:27.779
165, -20.88, -26.40, -18.46, -22.08, -24.92, -15.18, -16.79, -22.17, -18.93, -23.54, -13.99, -23.96, -25.26, -24.79, -21.17, -17.97, 0.000, 0.000, 0.000, 03:43:27.782
166, -20.88, -26.40, -18.46, -22.08, -24.92, -15.18, -16.79, -22.17, -18.82, -23.54, -13.79, -24.10, -25.17, -24.68, -21.08, -18.06, 0.000, 0.000, 0.000, 03:43:27.786
167, -20.81, -26.51, -18.55, -22.04, -25.44, -15.15, -16.63, -22.24, -18.82, -23.54, -13.79, -24.10, -25.17, -24.68, -21.08, -18.06, 0.000, 0.000, 0.000, 03:43:27.790
168, -20.81, -26.51, -18.55, -22.04, -25.44, -15.15, -16.63, -22.24, -18.82, -23.58, -13.75, -24.05, -25.39, -24.90, -21.21, -17.95, 0.000, 0.000, 0.000, 03:43:27.795
169, -20.90, -26.73, -18.57, -21.99, -25.06, -14.98, -16.63, -22.15, -18.82, -23.58, -13.75, -24.05, -25.39, -24.90, -21.21, -17.95, 0.000, 0.000, 0.000, 03:43:27.798
170, -20.90, -26.73, -18.57, -21.99, -25.06, -14.98, -16.63, -22.15, -18.93, -23.51, -14.04, -23.78, -25.24, -24.97, -21.32, -17.97, 0.000, 0.000, 0.000, 03:43:27.804
171, -20.83, -26.80, -18.48, -21.93, -25.17, -15.04, -16.56, -21.93, -18.93, -23.51, -14.04, -23.78, -25.24, -24.97, -21.32, -17.97, 0.000, 0.000, 0.000, 03:43:27.808
172, -20.83, -26.80, -18.48, -21.93, -25.17, -15.04, -16.56, -21.93, -18.64, -23.60, -14.13, -24.03, -25.44, -24.83, -21.26, -18.06, 0.000, 0.000, 0.000, 03:43:27.811
173, -20.72, -26.55, -18.37, -21.77, -24.79, -15.04, -16.76, -21.86, -18.64, -23.60, -14.13, -24.03, -25.44, -24.83, -21.26, -18.06, 0.000, 0.000, 0.000, 03:43:27.815
174, -20.72, -26.55, -18.37, -21.77, -24.79, -15.04, -16.76, -21.86, -18.98, -23.31, -13.75, -23.72, -25.50, -24.74, -21.23, -18.17, 0.016, 0.936, 0.286, 03:43:27.818
175, -20.72, -26.40, -18.40, -22.15, -24.88, -14.84, -17.12, -21.95, -18.98, -23.31, -13.75, -23.72, -25.50, -24.74, -21.23, -18.17, 0.000, 0.000, 0.000, 03:43:27.822
176, -20.72, -26.40, -18.40, -22.15, -24.88, -14.84, -17.12, -21.95, -19.00, -23.60, -13.90, -23.94, -25.30, -24.54, -21.14, -18.15, 0.000, 0.000, 0.000, 03:43:27.827
177, -20.68, -26.67, -18.57, -22.31, -25.12, -15.04, -16.83, -22.20, -19.00, -23.60, -13.90, -23.94, -25.30, -24.54, -21.14, -18.15, 0.000, 0.000, 0.000, 03:43:27.831
178, -20.68, -26.67, -18.57, -22.31, -25.12, -15.04, -16.83, -22.20, -18.98, -23.60, -13.90, -23.98, -25.50, -24.79, -20.97, -18.08, 0.000, 0.000, 0.000, 03:43:27.834
179, -20.63, -26.55, -18.57, -22.11, -24.83, -14.75, -16.76, -22.35, -18.98, -23.60, -13.90, -23.98, -25.50, -24.79, -20.97, -18.08, 0.000, 0.000, 0.000, 03:43:27.838
180, -20.63, -26.55, -18.57, -22.11, -24.83, -14.75, -16.76, -22.35, -18.95, -23.38, -13.79, -24.12, -25.35, -24.65, -21.26, -18.04, 0.000, 0.000, 0.000, 03:43:27.843
181, -20.85, -26.53, -18.51, -21.97, -24.90, -14.89, -16.72, -21.93, -18.95, -23.38, -13.79, -24.12, -25.35, -24.65, -21.26, -18.04, 0.000, 0.000, 0.000, 03:43:27.846
182, -20.85, -26.53, -18.51, -21.97, -24.90, -14.89, -16.72, -21.93, -18.93, -23.40, -14.13, -24.18, -25.48, -24.83, -21.21, -18.35, 0.000, 0.000, 0.000, 03:43:27.851
183, -20.56, -26.46, -18.44, -21.99, -25.12, -14.73, -16.72, -22.11, -18.93, -23.40, -14.13, -24.18, -25.48, -24.83, -21.21, -18.35, 0.000, 0.000, 0.000, 03:43:27.855
184, -20.56, -26.46, -18.44, -21.99, -25.12, -14.73, -16.72, -22.11, -19.07, -23.45, -13.93, -23.98, -25.46, -24.97, -21.23, -17.95, 0.014, 0.938, 0.290, 03:43:27.858
185, -20.81, -26.46, -18.60, -22.08, -25.08, -14.86, -16.83, -22.28, -19.07, -23.45, -13.93, -23.98, -25.46, -24.97, -21.23, -17.95, 0.000, 0.000, 0.000, 03:43:27.863
186, -20.81, -26.46, -18.60, -22.08, -25.08, -14.86, -16.83, -22.28, -18.98, -23.54, -13.81, -23.94, -25.44, -24.74, -21.19, -18.19, 0.000, 0.000, 0.000, 03:43:27.865
187, -21.01, -26.58, -18.40, -22.17, -24.92, -15.00, -16.58, -22.13, -18.98, -23.54, -13.81, -23.94, -25.44, -24.74, -21.19, -18.19, 0.000, 0.000, 0.000, 03:43:27.870
188, -21.01, -26.58, -18.40, -22.17, -24.92, -15.00, -16.58, -22.13, -18.89, -23.65, -13.95, -23.98, -25.26, -24.83, -21.19, -18.08, 0.000, 0.000, 0.000, 03:43:27.875
189, -20.79, -26.33, -18.62, -22.22, -24.92, -15.04, -16.88, -22.13, -18.89, -23.65, -13.95, -23.98, -25.26, -24.83, -21.19, -18.08, 0.000, 0.000, 0.000, 03:43:27.879
190, -20.79, -26.33, -18.62, -22.22, -24.92, -15.04, -16.88, -22.13, -19.13, -23.42, -13.99, -24.07, -25.17, -24.72, -21.12, -18.15, 0.000, 0.000, 0.000, 03:43:27.883
191, -20.61, -26.42, -18.40, -22.08, -25.08, -15.00, -16.99, -22.02, -19.13, -23.42, -13.99, -24.07, -25.17, -24.72, -21.12, -18.15, 0.000, 0.000, 0.000, 03:43:27.888
192, -20.61, -26.42, -18.40, -22.08, -25.08, -15.00, -16.99, -22.02, -18.98, -23.42, -14.17, -23.98, -25.24, -24.90, -21.10, -18.04, 0.000, 0.000, 0.000, 03:43:27.890
193, -20.68, -26.62, -18.69, -22.28, -24.97, -15.13, -16.81, -22.02, -18.98, -23.42, -14.17, -23.98, -25.24, -24.90, -21.10, -18.04, 0.016, 0.940, 0.294, 03:43:27.894
194, -20.68, -26.62, -18.69, -22.28, -24.97, -15.13, -16.81, -22.02, -18.82, -23.31, -13.86, -24.05, -25.41, -24.83, -21.37, -17.93, 0.000, 0.000, 0.000, 03:43:27.898
195, -20.63, -26.49, -18.78, -22.17, -24.99, -15.07, -16.65, -22.02, -18.82, -23.31, -13.86, -24.05, -25.41, -24.83, -21.37, -17.93, 0.000, 0.000, 0.000, 03:43:27.902
196, -20.63, -26.49, -18.78, -22.17, -24.99, -15.07, -16.65, -22.02, -18.78, -23.58, -13.61, -23.87, -25.15, -24.70, -21.06, -17.97, 0.000, 0.000, 0.000, 03:43:27.907
197, -20.79, -26.67, -18.71, -22.11, -24.97, -14.91, -16.65, -22.22, -18.78, -23.58, -13.61, -23.87, -25.15, -24.70, -21.06, -17.97, 0.000, 0.000, 0.000, 03:43:27.911
198, -20.79, -26.67, -18.71, -22.11, -24.97, -14.91, -16.65, -22.22, -18.86, -23.54, -13.88, -23.85, -25.48, -25.03, -21.21, -18.08, 0.000, 0.000, 0.000, 03:43:27.914
199, -20.74, -26.55, -18.44, -22.04, -24.99, -15.00, -16.83, -22.11, -18.86, -23.54, -13.88, -23.85, -25.48, -25.03, -21.21, -18.08, 0.000, 0.000, 0.000, 03:43:27.918
200, -20.74, -26.55, -18.44, -22.04, -24.99, -15.00, -16.83, -22.11, -18.80, -23.51, -13.84, -24.03, -25.26, -24.90, -21.39, -18.15, 0.000, 0.000, 0.000, 03:43:27.921
201, -20.79, -26.69, -18.53, -21.95, -24.97, -14.86, -16.67, -21.97, -18.80, -23.51, -13.84, -24.03, -25.26, -24.90, -21.39, -18.15, 0.000, 0.000, 0.000, 03:43:27.926
202, -20.79, -26.69, -18.53, -21.95, -24.97, -14.86, -16.67, -21.97, -18.89, -23.69, -13.86, -24.01, -25.39, -24.77, -21.37, -18.06, 0.000, 0.000, 0.000, 03:43:27.931
203, -20.81, -26.51, -18.51, -21.97, -24.88, -14.89, -16.63, -22.02, -18.89, -23.69, -13.86, -24.01, -25.39, -24.77, -21.37, -18.06, 0.018, 0.936, 0.304, 03:43:27.934
204, -20.81, -26.51, -18.51, -21.97, -24.88, -14.89, -16.63, -22.02, -18.89, -23.54, -13.88, -24.01, -25.39, -25.08, -21.21, -18.10, 0.000, 0.000, 0.000, 03:43:27.941
205, -20.68, -26.42, -18.48, -22.15, -25.08, -14.93, -16.58, -22.15, -18.89, -23.54, -13.88, -24.01, -25.39, -25.08, -21.21, -18.10, 0.000, 0.000, 0.000, 03:43:27.943
206, -20.68, -26.42, -18.48, -22.15, -25.08, -14.93, -16.58, -22.15, -19.04, -23.34, -13.95, -24.05, -25.24, -24.79, -21.37, -18.10, 0.000, 0.000, 0.000, 03:43:27.947
207, -20.74, -26.53, -18.62, -22.13, -25.08, -14.86, -16.83, -21.97, -19.04, -23.34, -13.95, -24.05, -25.24, -24.79, -21.37, -18.10, 0.000, 0.000, 0.000, 03:43:27.949
208, -20.74, -26.53, -18.62, -22.13, -25.08, -14.86, -16.83, -21.97, -18.80, -23.45, -13.81, -24.18, -25.21, -24.65, -21.41, -17.72, 0.000, 0.000, 0.000, 03:43:27.954
209, -20.68, -26.55, -18.53, -21.99, -25.08, -14.84, -16.70, -21.93, -18.80, -23.45, -13.81, -24.18, -25.21, -24.65, -21.41, -17.72, 0.000, 0.000, 0.000, 03:43:27.959
210, -20.68, -26.55, -18.53, -21.99, -25.08, -14.84, -16.70, -21.93, -18.75, -23.31, -13.66, -24.21, -25.21, -24.86, -21.32, -18.02, 0.000, 0.000, 0.000, 03:43:27.962
211, -20.70, -26.49, -18.93, -21.86, -24.77, -14.98, -16.50, -22.15, -18.75, -23.31, -13.66, -24.21, -25.21, -24.86, -21.32, -18.02, 0.000, 0.000, 0.000, 03:43:27.967
212, -20.70, -26.49, -18.93, -21.86, -24.77, -14.98, -16.50, -22.15, -18.95, -23.54, -14.08, -23.98, -25.48, -24.90, -21.39, -18.04, 0.000, 0.000, 0.000, 03:43:27.969
213, -20.70, -26.49, -18.51, -21.97, -24.94, -14.95, -16.65, -22.31, -18.95, -23.54, -14.08, -23.98, -25.48, -24.90, -21.39, -18.04, 0.022, 0.940, 0.302, 03:43:27.974
214, -20.70, -26.49, -18.51, -21.97, -24.94, -14.95, -16.65, -22.31, -18.93, -23.29, -14.01, -24.12, -25.46, -24.90, -21.14, -17.97, 0.000, 0.000, 0.000, 03:43:27.977
215, -20.79, -26.73, -18.64, -22.28, -25.06, -15.02, -16.76, -22.28, -18.93, -23.29, -14.01, -24.12, -25.46, -24.90, -21.14, -17.97, 0.000, 0.000, 0.000, 03:43:27.982
216, -20.79, -26.73, -18.64, -22.28, -25.06, -15.02, -16.76, -22.28, -18.91, -23.31, -13.93, -24.01, -25.35, -24.72, -21.28, -18.02, 0.000, 0.000, 0.000, 03:43:27.987
217, -20.92, -26.71, -18.33, -22.08, -25.17, -15.02, -16.81, -21.99, -18.91, -23.31, -13.93, -24.01, -25.35, -24.72, -21.28, -18.02, 0.000, 0.000, 0.000, 03:43:27.990
218, -20.92, -26.71, -18.33, -22.08, -25.17, -15.02, -16.81, -21.99, -18.91, -23.69, -13.66, -24.01, -25.30, -24.70, -21.21, -18.15, 0.000, 0.000, 0.000, 03:43:27.997
219, -20.76, -26.69, -18.44, -22.08, -25.17, -14.98, -16.65, -22.02, -18.91, -23.69, -13.66, -24.01, -25.30, -24.70, -21.21, -18.15, 0.000, 0.000, 0.000, 03:43:28.001
220, -20.76, -26.69, -18.44, -22.08, -25.17, -14.98, -16.65, -22.02, -19.00, -23.51, -14.01, -23.92, -25.44, -24.70, -21.06, -18.04, 0.000, 0.000, 0.000, 03:43:28.005
221, -20.63, -26.53, -18.57, -22.13, -25.03, -14.98, -16.83, -22.22, -19.00, -23.51, -14.01, -23.92, -25.44, -24.70, -21.06, -18.04, 0.000, 0.000, 0.000, 03:43:28.008
222, -20.63, -26.53, -18.57, -22.13, -25.03, -14.98, -16.83, -22.22, -18.98, -23.31, -13.63, -23.96, -25.48, -24.86, -21.19, -18.06, 0.000, 0.000, 0.000, 03:43:28.011
223, -20.74, -26.49, -18.42, -22.11, -24.88, -14.95, -16.99, -22.26, -18.98, -23.31, -13.63, -23.96, -25.48, -24.86, -21.19, -18.06, 0.026, 0.946, 0.304, 03:43:28.014
224, -20.74, -26.49, -18.42, -22.11, -24.88, -14.95, -16.99, -22.26, -18.82, -23.38, -13.77, -23.98, -25.53, -24.79, -21.10, -17.88, 0.000, 0.000, 0.000, 03:43:28.019
225, -20.92, -26.38, -18.69, -21.95, -24.90, -14.98, -16.88, -22.08, -18.82, -23.38, -13.77, -23.98, -25.53, -24.79, -21.10, -17.88, 0.000, 0.000, 0.000, 03:43:28.021
226, -20.92, -26.38, -18.69, -21.95, -24.90, -14.98, -16.88, -22.08, -18.95, -23.31, -14.01, -23.92, -25.41, -24.88, -21.14, -17.93, 0.000, 0.000, 0.000, 03:43:28.026
227, -20.65, -26.69, -18.35, -22.15, -24.79, -14.91, -16.76, -22.06, -18.95, -23.31, -14.01, -23.92, -25.41, -24.88, -21.14, -17.93, 0.000, 0.000, 0.000, 03:43:28.030
228, -20.65, -26.69, -18.35, -22.15, -24.79, -14.91, -16.76, -22.06, -18.89, -23.45, -13.77, -23.89, -25.44, -24.72, -21.08, -18.10, 0.000, 0.000, 0.000, 03:43:28.033
229, -20.59, -26.73, -18.57, -21.90, -24.97, -15.04, -16.72, -22.08, -18.89, -23.45, -13.77, -23.89, -25.44, -24.72, -21.08, -18.10, 0.000, 0.000, 0.000, 03:43:28.038
230, -20.59, -26.73, -18.57, -21.90, -24.97, -15.04, -16.72, -22.08, -19.09, -23.45, -13.95, -23.83, -25.44, -24.86, -21.21, -18.08, 0.000, 0.000, 0.000, 03:43:28.041
231, -20.74, -26.64, -18.51, -22.22, -24.92, -14.80, -16.74, -21.93, -19.09, -23.45, -13.95, -23.83, -25.44, -24.86, -21.21, -18.08, 0.000, 0.000, 0.000, 03:43:28.047
232, -20.74, -26.64, -18.51, -22.22, -24.92, -14.80, -16.74, -21.93, -18.91, -23.40, -13.61, -23.98, -25.08, -24.81, -21.28, -17.97, 0.000, 0.000, 0.000, 03:43:28.050
233, -20.63, -26.60, -18.40, -22.15, -25.12, -14.71, -16.67, -22.13, -18.91, -23.40, -13.61, -23.98, -25.08, -24.81, -21.28, -17.97, 0.028, 0.948, 0.286, 03:43:28.054
234, -20.63, -26.60, -18.40, -22.15, -25.12, -14.71, -16.67, -22.13, -18.95, -23.42, -14.01, -24.10, -25.35, -25.01, -21.19, -17.95, 0.000, 0.000, 0.000, 03:43:28.058
235, -20.76, -26.55, -18.60, -21.93, -25.17, -14.86, -16.72, -21.97, -18.95, -23.42, -14.01, -24.10, -25.35, -25.01, -21.19, -17.95, 0.000, 0.000, 0.000, 03:43:28.061
236, -20.76, -26.55, -18.60, -21.93, -25.17, -14.86, -16.72, -21.97, -18.91, -23.34, -13.99, -23.96, -25.41, -25.01, -21.14, -17.99, 0.000, 0.000, 0.000, 03:43:28.066
237, -20.79, -26.44, -18.55, -21.99, -24.97, -15.02, -16.76, -22.15, -18.91, -23.34, -13.99, -23.96, -25.41, -25.01, -21.14, -17.99, 0.000, 0.000, 0.000, 03:43:28.069
238, -20.79, -26.44, -18.55, -21.99, -24.97, -15.02, -16.76, -22.15, -19.04, -23.42, -13.99, -23.98, -25.50, -25.01, -21.17, -18.04, 0.000, 0.000, 0.000, 03:43:28.075
239, -20.76, -26.46, -18.48, -21.93, -25.03, -14.86, -16.67, -22.22, -19.04, -23.42, -13.99, -23.98, -25.50, -25.01, -21.17, -18.04, 0.000, 0.000, 0.000, 03:43:28.078
240, -20.76, -26.46, -18.48, -21.93, -25.03, -14.86, -16.67, -22.22, -18.80, -23.36, -13.77, -24.12, -25.24, -24.83, -21.17, -18.10, 0.000, 0.000, 0.000, 03:43:28.082
241, -20.81, -26.76, -18.48, -22.08, -24.92, -15.07, -16.67, -22.11, -18.80, -23.36, -13.77, -24.12, -25.24, -24.83, -21.17, -18.10, 0.000, 0.000, 0.000, 03:43:28.086
242, -20.81, -26.76, -18.48, -22.08, -24.92, -15.07, -16.67, -22.11, -18.95, -23.31, -13.93, -23.85, -25.39, -24.77, -21.28, -18.10, 0.000, 0.000, 0.000, 03:43:28.089
243, -20.76, -26.55, -18.64, -21.93, -24.83, -14.93, -16.67, -22.08, -18.95, -23.31, -13.93, -23.85, -25.39, -24.77, -21.28, -18.10, 0.030, 0.952, 0.304, 03:43:28.094
244, -20.76, -26.55, -18.64, -21.93, -24.83, -14.93, -16.67, -22.08, -18.91, -23.38, -13.88, -23.92, -25.30, -24.72, -21.08, -18.02, 0.000, 0.000, 0.000, 03:43:28.098
245, -20.92, -26.62, -18.55, -22.04, -25.03, -15.00, -16.72, -22.22, -18.91, -23.38, -13.88, -23.92, -25.30, -24.72, -21.08, -18.02, 0.000, 0.000, 0.000, 03:43:28.102
246, -20.92, -26.62, -18.55, -22.04, -25.03, -15.00, -16.72, -22.22, -19.07, -23.42, -14.04, -23.83, -25.48, -24.70, -21.39, -18.10, 0.000, 0.000, 0.000, 03:43:28.105
247, -20.76, -26.71, -18.31, -21.88, -24.90, -15.15, -16.79, -22.04, -19.07, -23.42, -14.04, -23.83, -25.48, -24.70, -21.39, -18.10, 0.000, 0.000, 0.000, 03:43:28.110
248, -20.76, -26.71, -18.31, -21.88, -24.90, -15.15, -16.79, -22.04, -18.95, -23.38, -14.01, -23.94, -25.39, -24.65, -21.19, -18.19, 0.000, 0.000, 0.000, 03:43:28.114
249, -20.76, -26.53, -18.55, -22.02, -25.24, -15.24, -16.58, -22.22, -18.95, -23.38, -14.01, -23.94, -25.39, -24.65, -21.19, -18.19, 0.000, 0.000, 0.000, 03:43:28.118
250, -20.76, -26.53, -18.55, -22.02, -25.24, -15.24, -16.58, -22.22, -18.71, -23.45, -13.93, -23.98, -25.26, -24.83, -21.21, -18.19, 0.000, 0.000, 0.000, 03:43:28.122
251, -21.01, -26.51, -18.60, -22.26, -25.15, -14.82, -16.58, -22.06, -18.71, -23.45, -13.93, -23.98, -25.26, -24.83, -21.21, -18.19, 0.000, 0.000, 0.000, 03:43:28.126
252, -21.01, -26.51, -18.60, -22.26, -25.15, -14.82, -16.58, -22.06, -18.78, -23.40, -14.10, -23.76, -25.41, -24.56, -21.17, -17.93, 0.036, 0.944, 0.304, 03:43:28.128
253, -20.85, -26.58, -18.78, -22.24, -24.94, -15.07, -16.52, -22.06, -18.78, -23.40, -14.10, -23.76, -25.41, -24.56, -21.17, -17.93, 0.000, 0.000, 0.000, 03:43:28.133
254, -20.85, -26.58, -18.78, -22.24, -24.94, -15.07, -16.52, -22.06, -18.95, -23.54, -14.10, -24.07, -25.39, -24.99, -21.19, -18.13, 0.000, 0.000, 0.000, 03:43:28.138
255, -20.85, -26.46, -18.51, -22.24, -25.12, -14.75, -16.83, -22.15, -18.95, -23.54, -14.10, -24.07, -25.39, -24.99, -21.19, -18.13, 0.000, 0.000, 0.000, 03:43:28.142
0, -20.85, -26.46, -18.51, -22.24, -25.12, -14.75, -16.83, -22.15, -18.91, -23.58, -13.93, -23.94, -25.62, -24.79, -21.03, -18.04, 0.000, 0.000, 0.000, 03:43:28.146
1, -20.90, -26.40, -18.69, -22.28, -25.24, -15.09, -16.74, -22.15, -18.91, -23.58, -13.93, -23.94, -25.62, -24.79, -21.03, -18.04, 0.000, 0.000, 0.000, 03:43:28.149
2, -20.90, -26.40, -18.69, -22.28, -25.24, -15.09, -16.74, -22.15, -18.95, -23.54, -13.88, -23.78, -25.50, -24.90, -21.08, -18.15, 0.000, 0.000, 0.000, 03:43:28.155
3, -20.72, -26.71, -18.73, -22.42, -25.24, -14.82, -16.81, -21.97, -18.95, -23.54, -13.88, -23.78, -25.50, -24.90, -21.08, -18.15, 0.000, 0.000, 0.000, 03:43:28.159
4, -20.72, -26.71, -18.73, -22.42, -25.24, -14.82, -16.81, -21.97, -18.93, -23.47, -14.06, -24.21, -25.35, -24.83, -21.14, -18.26, 0.000, 0.000, 0.000, 03:43:28.162
5, -20.81, -26.51, -18.57, -22.04, -24.99, -14.86, -17.01, -21.99, -18.93, -23.47, -14.06, -24.21, -25.35, -24.83, -21.14, -18.26, 0.000, 0.000, 0.000, 03:43:28.166
6, -20.81, -26.51, -18.57, -22.04, -24.99, -14.86, -17.01, -21.99, -19.04, -23.29, -13.81, -24.07, -25.06, -24.90, -21.08, -18.10, 0.022, 0.946, 0.296, 03:43:28.170
7, -20.88, -26.53, -18.35, -22.08, -25.26, -14.86, -16.70, -22.17, -19.04, -23.29, -13.81, -24.07, -25.06, -24.90, -21.08, -18.10, 0.000, 0.000, 0.000, 03:43:28.174
8, -20.88, -26.53, -18.35, -22.08, -25.26, -14.86, -16.70, -22.17, -19.07, -23.56, -14.08, -24.07, -25.30, -24.99, -21.26, -18.15, 0.000, 0.000, 0.000, 03:43:28.178
9, -20.85, -26.51, -18.73, -22.13, -24.92, -14.89, -16.83, -22.11, -19.07, -23.56, -14.08, -24.07, -25.30, -24.99, -21.26, -18.15, 0.000, 0.000, 0.000, 03:43:28.182
10, -20.85, -26.51, -18.73, -22.13, -24.92, -14.89, -16.83, -22.11, -18.84, -23.38, -13.93, -24.10, -25.41, -24.86, -21.26, -17.88, 0.000, 0.000, 0.000, 03:43:28.186
11, -20.92, -26.53, -18.44, -21.93, -25.24, -15.15, -16.74, -22.04, -18.84, -23.38, -13.93, -24.10, -25.41, -24.86, -21.26, -17.88, 0.000, 0.000, 0.000, 03:43:28.190
12, -20.92, -26.53, -18.44, -21.93, -25.24, -15.15, -16.74, -22.04, -19.07, -23.36, -13.90, -23.96, -25.39, -24.83, -21.44, -18.08, 0.000, 0.000, 0.000, 03:43:28.194
13, -20.63, -26.49, -18.62, -21.97, -25.10, -15.04, -16.74, -22.06, -19.07, -23.36, -13.90, -23.96, -25.39, -24.83, -21.44, -18.08, 0.000, 0.000, 0.000, 03:43:28.197
14, -20.63, -26.49, -18.62, -21.97, -25.10, -15.04, -16.74, -22.06, -18.95, -23.45, -14.10, -23.94, -25.26, -24.70, -21.39, -18.19, 0.000, 0.000, 0.000, 03:43:28.203
15, -20.76, -26.51, -18.62, -22.22, -25.10, -14.98, -16.90, -21.99, -18.95, -23.45, -14.10, -23.94, -25.26, -24.70, -21.39, -18.19, 0.000, 0.000, 0.000, 03:43:28.207
16, -20.76, -26.51, -18.62, -22.22, -25.10, -14.98, -16.90, -21.99, -18.91, -23.42, -14.15, -23.98, -25.46, -24.86, -21.37, -17.97, 0.020, 0.940, 0.294, 03:43:28.210
17, -20.79, -26.62, -18.71, -22.26, -24.97, -14.95, -16.99, -22.02, -18.91, -23.42, -14.15, -23.98, -25.46, -24.86, -21.37, -17.97, 0.000, 0.000, 0.000, 03:43:28.214
18, -20.79, -26.62, -18.71, -22.26, -24.97, -14.95, -16.99, -22.02, -18.86, -23.40, -13.77, -23.98, -25.44, -24.74, -21.14, -18.08, 0.000, 0.000, 0.000, 03:43:28.219
19, -20.83, -26.64, -18.57, -21.97, -25.03, -14.93, -16.70, -22.24, -18.86, -23.40, -13.77, -23.98, -25.44, -24.74, -21.14, -18.08, 0.000, 0.000, 0.000, 03:43:28.222
20, -20.83, -26.64, -18.57, -21.97, -25.03, -14.93, -16.70, -22.24, -19.00, -23.27, -13.84, -24.23, -25.57, -24.70, -21.21, -17.81, 0.000, 0.000, 0.000, 03:43:28.225
21, -20.68, -26.55, -18.64, -22.15, -25.15, -14.95, -16.63, -22.26, -19.00, -23.27, -13.84, -24.23, -25.57, -24.70, -21.21, -17.81, 0.000, 0.000, 0.000, 03:43:28.230
22, -20.68, -26.55, -18.64, -22.15, -25.15, -14.95, -16.63, -22.26, -18.98, -23.34, -13.81, -23.96, -25.28, -24.88, -21.17, -18.13, 0.000, 0.000, 0.000, 03:43:28.234
23, -20.72, -26.60, -18.75, -22.04, -24.97, -14.98, -16.65, -22.02, -18.98, -23.34, -13.81, -23.96, -25.28, -24.88, -21.17, -18.13, 0.000, 0.000, 0.000, 03:43:28.237
24, -20.72, -26.60, -18.75, -22.04, -24.97, -14.98, -16.65, -22.02, -18.80, -23.42, -13.79, -23.98, -25.41, -24.65, -21.44, -18.13, 0.000, 0.000, 0.000, 03:43:28.241
25, -20.74, -26.60, -18.57, -21.95, -24.88, -15.00, -16.61, -21.86, -18.80, -23.42, -13.79, -23.98, -25.41, -24.65, -21.44, -18.13, 0.000, 0.000, 0.000, 03:43:28.247
26, -20.74, -26.60, -18.57, -21.95, -24.88, -15.00, -16.61, -21.86, -18.89, -23.36, -13.61, -23.92, -25.50, -24.79, -21.32, -18.15, 0.012, 0.940, 0.298, 03:43:28.250
27, -20.83, -26.58, -18.57, -22.08, -24.99, -15.07, -16.92, -21.95, -18.89, -23.36, -13.61, -23.92, -25.50, -24.79, -21.32, -18.15, 0.000, 0.000, 0.000, 03:43:28.254
28, -20.83, -26.58, -18.57, -22.08, -24.99, -15.07, -16.92, -21.95, -18.91, -23.58, -14.01, -24.14, -25.30, -24.63, -21.28, -18.04, 0.000, 0.000, 0.000, 03:43:28.257
29, -20.74, -26.60, -18.60, -22.11, -25.15, -14.93, -16.58, -22.17, -18.91, -23.58, -14.01, -24.14, -25.30, -24.63, -21.28, -18.04, 0.000, 0.000, 0.000, 03:43:28.262
30, -20.74, -26.60, -18.60, -22.11, -25.15, -14.93, -16.58, -22.17, -18.80, -23.63, -13.93, -24.03, -25.32, -24.72, -21.37, -18.06, 0.000, 0.000, 0.000, 03:43:28.265
31, -20.85, -26.51, -18.71, -22.08, -25.19, -14.93, -16.70, -22.20, -18.80, -23.63, -13.93, -24.03, -25.32, -24.72, -21.37, -18.06, 0.000, 0.000, 0.000, 03:43:28.269
32, -20.85, -26.51, -18.71, -22.08, -25.19, -14.93, -16.70, -22.20, -18.95, -23.54, -14.06, -24.05, -25.41, -24.90, -21.17, -17.99, 0.000, 0.000, 0.000, 03:43:28.273
33, -20.90, -26.49, -18.66, -21.90, -24.99, -14.98, -16.74, -21.95, -18.95, -23.54, -14.06, -24.05, -25.41, -24.90, -21.17, -17.99, 0.000, 0.000, 0.000, 03:43:28.277
34, -20.90, -26.49, -18.66, -21.90, -24.99, -14.98, -16.74, -21.95, -19.31, -23.25, -14.01, -23.78, -25.28, -24.90, -21.21, -18.02, 0.000, 0.000, 0.000, 03:43:28.282
35, -20.61, -26.42, -18.55, -22.02, -25.17, -14.91, -16.79, -22.20, -19.31, -23.25, -14.01, -23.78, -25.28, -24.90, -21.21, -18.02, 0.000, 0.000, 0.000, 03:43:28.286
36, -20.61, -26.42, -18.55, -22.02, -25.17, -14.91, -16.79, -22.20, -18.98, -23.54, -13.90, -24.01, -25.37, -24.79, -21.39, -17.95, 0.014, 0.934, 0.282, 03:43:28.289
37, -20.59, -26.55, -18.57, -22.17, -24.90, -14.89, -16.56, -22.11, -18.98, -23.54, -13.90, -24.01, -25.37, -24.79, -21.39, -17.95, 0.000, 0.000, 0.000, 03:43:28.293
38, -20.59, -26.55, -18.57, -22.17, -24.90, -14.89, -16.56, -22.11, -18.75, -23.42, -13.99, -23.89, -25.41, -24.79, -21.21, -17.90, 0.000, 0.000, 0.000, 03:43:28.297
39, -20.70, -26.58, -18.42, -22.06, -25.01, -15.04, -16.72, -21.99, -18.75, -23.42, -13.99, -23.89, -25.41, -24.79, -21.21, -17.90, 0.000, 0.000, 0.000, 03:43:28.303
40, -20.70, -26.58, -18.42, -22.06, -25.01, -15.04, -16.72, -21.99, -18.91, -23.29, -13.84, -24.12, -25.37, -24.61, -21.35, -18.10, 0.000, 0.000, 0.000, 03:43:28.306
41, -20.92, -26.42, -18.57, -22.13, -25.03, -14.82, -16.72, -22.08, -18.91, -23.29, -13.84, -24.12, -25.37, -24.61, -21.35, -18.10, 0.000, 0.000, 0.000, 03:43:28.309
42, -20.92, -26.42, -18.57, -22.13, -25.03, -14.82, -16.72, -22.08, -18.89, -23.54, -13.81, -24.14, -25.17, -24.72, -21.37, -18.08, 0.000, 0.000, 0.000, 03:43:28.315
43, -20.79, -26.51, -18.64, -22.22, -24.97, -14.98, -16.56, -22.22, -18.89, -23.54, -13.81, -24.14, -25.17, -24.72, -21.37, -18.08, 0.000, 0.000, 0.000, 03:43:28.317
44, -20.79, -26.51, -18.64, -22.22, -24.97, -14.98, -16.56, -22.22, -19.02, -23.47, -13.90, -24.03, -25.28, -24.90, -21.30, -18.02, 0.000, 0.000, 0.000, 03:43:28.321
45, -20.81, -26.58, -18.46, -22.15, -24.83, -15.18, -16.70, -22.04, -19.02, -23.47, -13.90, -24.03, -25.28, -24.90, -21.30, -18.02, 0.000, 0.000, 0.000, 03:43:28.325
46, -20.81, -26.58, -18.46, -22.15, -24.83, -15.18, -16.70, -22.04, -18.89, -23.58, -14.04, -24.16, -25.48, -24.68, -21.21, -17.88, 0.010, 0.948, 0.288, 03:43:28.329
47, -20.94, -26.62, -18.33, -22.31, -24.94, -15.00, -16.88, -22.13, -18.89, -23.58, -14.04, -24.16, -25.48, -24.68, -21.21, -17.88, 0.000, 0.000, 0.000, 03:43:28.334
48, -20.94, -26.62, -18.33, -22.31, -24.94, -15.00, -16.88, -22.13, -18.75, -23.38, -13.88, -24.10, -25.53, -24.86, -21.14, -18.06, 0.000, 0.000, 0.000, 03:43:28.337
49, -20.63, -26.64, -18.64, -21.99, -25.17, -14.91, -16.81, -22.06, -18.75, -23.38, -13.88, -24.10, -25.53, -24.86, -21.14, -18.06, 0.000, 0.000, 0.000, 03:43:28.342
50, -20.63, -26.64, -18.64, -21.99, -25.17, -14.91, -16.81, -22.06, -18.89, -23.36, -13.97, -24.05, -25.39, -25.06, -21.23, -18.17, 0.000, 0.000, 0.000, 03:43:28.345
51, -20.88, -26.58, -18.66, -22.02, -24.92, -14.91, -16.63, -21.93, -18.89, -23.36, -13.97, -24.05, -25.39, -25.06, -21.23, -18.17, 0.000, 0.000, 0.000, 03:43:28.349
52, -20.88, -26.58, -18.66, -22.02, -24.92, -14.91, -16.63, -21.93, -18.89, -23.31, -14.22, -23.83, -25.26, -24.72, -21.26, -18.15, 0.000, 0.000, 0.000, 03:43:28.354
53, -20.94, -26.51, -18.60, -22.06, -25.01, -15.00, -16.65, -22.13, -18.89, -23.31, -14.22, -23.83, -25.26, -24.72, -21.26, -18.15, 0.000, 0.000, 0.000, 03:43:28.357
54, -20.94, -26.51, -18.60, -22.06, -25.01, -15.00, -16.65, -22.13, -18.93, -23.47, -13.86, -23.89, -25.35, -24.54, -20.97, -18.04, 0.000, 0.000, 0.000, 03:43:28.361
55, -20.74, -26.69, -18.48, -22.13, -24.83, -14.98, -16.56, -21.97, -18.93, -23.47, -13.86, -23.89, -25.35, -24.54, -20.97, -18.04, 0.014, 0.934, 0.282, 03:43:28.366
56, -20.74, -26.69, -18.48, -22.13, -24.83, -14.98, -16.56, -21.97, -18.86, -23.56, -13.77, -23.76, -25.30, -24.79, -20.85, -18.08, 0.000, 0.000, 0.000, 03:43:28.372
57, -20.74, -26.60, -18.51, -21.90, -24.83, -14.66, -16.54, -22.31, -18.86, -23.56, -13.77, -23.76, -25.30, -24.79, -20.85, -18.08, 0.000, 0.000, 0.000, 03:43:28.374
58, -20.74, -26.60, -18.51, -21.90, -24.83, -14.66, -16.54, -22.31, -18.78, -23.58, -13.97, -24.03, -25.39, -24.68, -21.37, -18.08, 0.000, 0.000, 0.000, 03:43:28.378
59, -20.81, -26.44, -18.55, -22.13, -24.86, -14.93, -16.79, -22.33, -18.78, -23.58, -13.97, -24.03, -25.39, -24.68, -21.37, -18.08, 0.000, 0.000, 0.000, 03:43:28.381
60, -20.81, -26.44, -18.55, -22.13, -24.86, -14.93, -16.79, -22.33, -18.89, -23.58, -13.95, -24.01, -25.55, -24.68, -21.10, -17.72, 0.000, 0.000, 0.000, 03:43:28.385
61, -20.74, -26.53, -18.42, -22.04, -24.92, -15.18, -16.72, -22.22, -18.89, -23.58, -13.95, -24.01, -25.55, -24.68, -21.10, -17.72, 0.000, 0.000, 0.000, 03:43:28.389
62, -20.74, -26.53, -18.42, -22.04, -24.92, -15.18, -16.72, -22.22, -18.78, -23.51, -13.97, -24.03, -25.30, -24.72, -21.26, -17.55, 0.000, 0.000, 0.000, 03:43:28.394
63, -20.79, -26.73, -18.57, -21.88, -25.08, -14.95, -16.63, -22.17, -18.78, -23.51, -13.97, -24.03, -25.30, -24.72, -21.26, -17.55, 0.000, 0.000, 0.000, 03:43:28.397
64, -20.79, -26.73, -18.57, -21.88, -25.08, -14.95, -16.63, -22.17, -18.73, -23.63, -14.06, -24.14, -25.48, -24.77, -21.08, -17.81, 0.000, 0.000, 0.000, 03:43:28.400
65, -20.56, -26.46, -18.37, -21.95, -24.94, -14.93, -16.79, -22.04, -18.73, -23.63, -14.06, -24.14, -25.48, -24.77, -21.08, -17.81, 0.012, 0.938, 0.296, 03:43:28.406
66, -20.56, -26.46, -18.37, -21.95, -24.94, -14.93, -16.79, -22.04, -18.60, -23.45, -13.90, -23.76, -25.35, -24.88, -21.44, -17.97, 0.000, 0.000, 0.000, 03:43:28.409
67, -20.74, -26.64, -18.53, -21.84, -25.01, -14.95, -16.58, -22.02, -18.60, -23.45, -13.90, -23.76, -25.35, -24.88, -21.44, -17.97, 0.000, 0.000, 0.000, 03:43:28.413
68, -20.74, -26.64, -18.53, -21.84, -25.01, -14.95, -16.58, -22.02, -19.07, -23.25, -14.19, -23.98, -25.26, -24.86, -21.46, -17.97, 0.000, 0.000, 0.000, 03:43:28.417
69, -20.76, -26.55, -18.48, -21.97, -25.21, -15.07, -16.74, -22.11, -19.07, -23.25, -14.19, -23.98, -25.26, -24.86, -21.46, -17.97, 0.000, 0.000, 0.000, 03:43:28.421
70, -20.76, -26.55, -18.48, -21.97, -25.21, -15.07, -16.74, -22.11, -18.98, -23.36, -13.88, -24.14, -25.50, -24.94, -21.28, -17.95, 0.000, 0.000, 0.000, 03:43:28.426
71, -20.88, -26.76, -18.71, -22.11, -24.92, -15.02, -16.61, -22.08, -18.98, -23.36, -13.88, -24.14, -25.50, -24.94, -21.28, -17.95, 0.000, 0.000, 0.000, 03:43:28.428
72, -20.88, -26.76, -18.71, -22.11, -24.92, -15.02, -16.61, -22.08, -18.89, -23.54, -13.84, -23.96, -25.35, -24.63, -21.21, -18.08, 0.000, 0.000, 0.000, 03:43:28.433
73, -20.65, -26.73, -18.64, -22.24, -25.03, -15.04, -16.85, -22.20, -18.89, -23.54, -13.84, -23.96, -25.35, -24.63, -21.21, -18.08, 0.000, 0.000, 0.000, 03:43:28.437
74, -20.65, -26.73, -18.64, -22.24, -25.03, -15.04, -16.85, -22.20, -18.95, -23.51, -13.84, -24.10, -25.32, -24.74, -21.39, -17.88, 0.000, 0.000, 0.000, 03:43:28.441
75, -20.79, -26.69, -18.64, -21.93, -25.15, -14.84, -16.85, -22.22, -18.95, -23.51, -13.84, -24.10, -25.32, -24.74, -21.39, -17.88, 0.006, 0.938, 0.284, 03:43:28.445
76, -20.79, -26.69, -18.64, -21.93, -25.15, -14.84, -16.85, -22.22, -18.84, -23.45, -13.79, -23.92, -25.39, -24.88, -21.32, -18.26, 0.000, 0.000, 0.000, 03:43:28.450
77, -20.88, -26.38, -18.69, -22.02, -25.03, -14.80, -16.58, -22.11, -18.84, -23.45, -13.79, -23.92, -25.39, -24.88, -21.32, -18.26, 0.000, 0.000, 0.000, 03:43:28.453
78, -20.88, -26.38, -18.69, -22.02, -25.03, -14.80, -16.58, -22.11, -19.07, -23.42, -13.84, -23.94, -25.30, -24.81, -21.19, -18.10, 0.000, 0.000, 0.000, 03:43:28.457
79, -20.88, -26.55, -18.53, -22.13, -24.97, -14.89, -16.61, -21.97, -19.07, -23.42, -13.84, -23.94, -25.30, -24.81, -21.19, -18.10, 0.000, 0.000, 0.000, 03:43:28.461
80, -20.88, -26.55, -18.53, -22.13, -24.97, -14.89, -16.61, -21.97, -18.86, -23.29, -13.95, -23.94, -25.57, -24.81, -21.03, -17.95, 0.000, 0.000, 0.000, 03:43:28.465
81, -20.76, -26.71, -18.69, -22.06, -24.88, -14.80, -16.70, -22.11, -18.86, -23.29, -13.95, -23.94, -25.57, -24.81, -21.03, -17.95, 0.000, 0.000, 0.000, 03:43:28.469
82, -20.76, -26.71, -18.69, -22.06, -24.88, -14.80, -16.70, -22.11, -18.95, -23.49, -13.75, -23.80, -25.44, -24.74, -21.17, -17.88, 0.000, 0.000, 0.000, 03:43:28.474
83, -20.83, -26.73, -18.42, -22.35, -24.90, -14.84, -16.50, -21.77, -18.95, -23.49, -13.75, -23.80, -25.44, -24.74, -21.17, -17.88, 0.000, 0.000, 0.000, 03:43:28.477
84, -20.83, -26.73, -18.42, -22.35, -24.90, -14.84, -16.50, -21.77, -18.89, -23.34, -13.72, -23.94, -25.64, -24.90, -21.28, -18.26, 0.000, 0.000, 0.000, 03:43:28.480
85, -20.76, -26.62, -18.37, -21.95, -25.01, -14.98, -16.63, -22.15, -18.89, -23.34, -13.72, -23.94, -25.64, -24.90, -21.28, -18.26, 0.008, 0.934, 0.294, 03:43:28.485
86, -20.76, -26.62, -18.37, -21.95, -25.01, -14.98, -16.63, -22.15, -18.95, -23.22, -13.93, -24.05, -25.44, -24.77, -21.26, -18.10, 0.000, 0.000, 0.000, 03:43:28.488
87, -20.74, -26.53, -18.64, -21.93, -24.97, -14.80, -16.85, -22.13, -18.95, -23.22, -13.93, -24.05, -25.44, -24.77, -21.26, -18.10, 0.000, 0.000, 0.000, 03:43:28.493
88, -20.74, -26.53, -18.64, -21.93, -24.97, -14.80, -16.85, -22.13, -19.04, -23.47, -13.95, -23.80, -25.46, -24.63, -21.44, -18.08, 0.000, 0.000, 0.000, 03:43:28.497
89, -20.85, -26.62, -18.57, -22.11, -24.94, -14.95, -16.67, -22.06, -19.04, -23.47, -13.95, -23.80, -25.46, -24.63, -21.44, -18.08, 0.000, 0.000, 0.000, 03:43:28.502
90, -20.85, -26.62, -18.57, -22.11, -24.94, -14.95, -16.67, -22.06, -18.84, -23.63, -14.08, -24.01, -25.59, -24.88, -21.12, -17.97, 0.000, 0.000, 0.000, 03:43:28.505
91, -20.68, -26.35, -18.55, -22.17, -25.03, -14.86, -16.88, -21.99, -18.84, -23.63, -14.08, -24.01, -25.59, -24.88, -21.12, -17.97, 0.000, 0.000, 0.000, 03:43:28.509
92, -20.68, -26.35, -18.55, -22.17, -25.03, -14.86, -16.88, -21.99, -19.09, -23.25, -13.97, -23.96, -25.48, -24.74, -21.08, -17.99, 0.000, 0.000, 0.000, 03:43:28.512
93, -20.70, -26.53, -18.40, -22.02, -25.30, -14.82, -16.74, -22.15, -19.09, -23.25, -13.97, -23.96, -25.48, -24.74, -21.08, -17.99, 0.000, 0.000, 0.000, 03:43:28.516
94, -20.70, -26.53, -18.40, -22.02, -25.30, -14.82, -16.74, -22.15, -19.02, -23.42, -13.81, -23.67, -25.37, -24.83, -21.28, -18.02, 0.000, 0.000, 0.000, 03:43:28.521
95, -20.97, -26.71, -18.53, -21.95, -25.24, -14.82, -16.88, -21.90, -19.02, -23.42, -13.81, -23.67, -25.37, -24.83, -21.28, -18.02, 0.008, 0.938, 0.288, 03:43:28.525
96, -20.97, -26.71, -18.53, -21.95, -25.24, -14.82, -16.88, -21.90, -18.93, -23.54, -13.81, -23.74, -25.35, -24.81, -21.03, -18.31, 0.000, 0.000, 0.000, 03:43:28.530
97, -20.88, -26.87, -18.42, -22.02, -24.90, -15.04, -16.67, -22.15, -18.93, -23.54, -13.81, -23.74, -25.35, -24.81, -21.03, -18.31, 0.000, 0.000, 0.000, 03:43:28.532
98, -20.88, -26.87, -18.42, -22.02, -24.90, -15.04, -16.67, -22.15, -18.80, -23.58, -13.75, -23.94, -25.35, -24.77, -21.14, -17.99, 0.000, 0.000, 0.000, 03:43:28.536
99, -20.81, -26.51, -18.57, -21.86, -24.90, -14.98, -16.67, -21.99, -18.80, -23.58, -13.75, -23.94, -25.35, -24.77, -21.14, -17.99, 0.000, 0.000, 0.000, 03:43:28.541
100, -20.81, -26.51, -18.57, -21.86, -24.90, -14.98, -16.67, -21.99, -18.82, -23.54, -13.86, -23.83, -25.26, -24.83, -21.14, -17.97, 0.000, 0.000, 0.000, 03:43:28.544
101, -20.81, -26.51, -18.35, -21.90, -24.79, -15.11, -16.79, -21.90, -18.82, -23.54, -13.86, -23.83, -25.26, -24.83, -21.14, -17.97, 0.000, 0.000, 0.000, 03:43:28.548
102, -20.81, -26.51, -18.35, -21.90, -24.79, -15.11, -16.79, -21.90, -18.78, -23.31, -13.88, -23.98, -25.41, -24.81, -21.14, -18.13, 0.000, 0.000, 0.000, 03:43:28.553
103, -20.74, -26.51, -18.44, -21.97, -24.88, -14.73, -16.72, -22.04, -18.78, -23.31, -13.88, -23.98, -25.41, -24.81, -21.14, -18.13, 0.000, 0.000, 0.000, 03:43:28.558
104, -20.74, -26.51, -18.44, -21.97, -24.88, -14.73, -16.72, -22.04, -18.93, -23.42, -13.79, -24.16, -25.28, -24.65, -21.35, -18.04, 0.000, 0.000, 0.000, 03:43:28.560
105, -20.99, -26.55, -18.55, -22.24, -25.06, -15.04, -16.92, -22.31, -18.93, -23.42, -13.79, -24.16, -25.28, -24.65, -21.35, -18.04, 0.008, 0.948, 0.288, 03:43:28.564
106, -20.99, -26.55, -18.55, -22.24, -25.06, -15.04, -16.92, -22.31, -19.02, -23.47, -13.88, -23.85, -25.28, -24.86, -21.46, -18.06, 0.000, 0.000, 0.000, 03:43:28.569
107, -20.81, -26.69, -18.57, -22.15, -24.77, -14.84, -16.76, -21.95, -19.02, -23.47, -13.88, -23.85, -25.28, -24.86, -21.46, -18.06, 0.000, 0.000, 0.000, 03:43:28.573
108, -20.81, -26.69, -18.57, -22.15, -24.77, -14.84, -16.76, -21.95, -18.86, -23.20, -13.95, -24.03, -25.35, -24.77, -21.32, -18.24, 0.000, 0.000, 0.000, 03:43:28.576
109, -20.63, -26.51, -18.35, -21.99, -24.97, -14.77, -16.58, -21.95, -18.86, -23.20, -13.95, -24.03, -25.35, -24.77, -21.32, -18.24, 0.000, 0.000, 0.000, 03:43:28.581
110, -20.63, -26.51, -18.35, -21.99, -24.97, -14.77, -16.58, -21.95, -18.86, -23.42, -13.86, -24.07, -25.41, -24.90, -21.12, -18.10, 0.000, 0.000, 0.000, 03:43:28.585
111, -20.81, -26.40, -18.48, -22.06, -25.08, -14.95, -16.85, -21.95, -18.86, -23.42, -13.86, -24.07, -25.41, -24.90, -21.12, -18.10, 0.000, 0.000, 0.000, 03:43:28.589
112, -20.81, -26.40, -18.48, -22.06, -25.08, -14.95, -16.85, -21.95, -18.60, -23.58, -14.04, -24.05, -25.44, -24.81, -20.99, -18.17, 0.000, 0.000, 0.000, 03:43:28.592
113, -20.70, -26.42, -18.66, -22.06, -24.92, -14.91, -16.76, -21.93, -18.60, -23.58, -14.04, -24.05, -25.44, -24.81, -20.99, -18.17, 0.000, 0.000, 0.000, 03:43:28.596
114, -20.70, -26.42, -18.66, -22.06, -24.92, -14.91, -16.76, -21.93, -19.02, -23.56, -13.88, -23.83, -25.24, -24.92, -20.83, -17.86, 0.000, 0.000, 0.000, 03:43:28.601
115, -20.70, -26.42, -18.64, -22.11, -25.12, -14.86, -16.67, -22.28, -19.02, -23.56, -13.88, -23.83, -25.24, -24.92, -20.83, -17.86, 0.016, 0.944, 0.282, 03:43:28.605
116, -20.70, -26.42, -18.64, -22.11, -25.12, -14.86, -16.67, -22.28, -19.07, -23.45, -13.88, -23.92, -25.48, -24.83, -21.10, -18.02, 0.000, 0.000, 0.000, 03:43:28.608
117, -20.97, -26.69, -18.42, -22.08, -25.03, -14.98, -16.74, -22.37, -19.07, -23.45, -13.88, -23.92, -25.48, -24.83, -21.10, -18.02, 0.000, 0.000, 0.000, 03:43:28.613
118, -20.97, -26.69, -18.42, -22.08, -25.03, -14.98, -16.74, -22.37, -18.86, -23.54, -13.97, -24.07, -25.48, -24.70, -21.06, -18.17, 0.000, 0.000, 0.000, 03:43:28.617
119, -20.83, -26.53, -18.42, -21.97, -25.15, -14.77, -16.74, -22.24, -18.86, -23.54, -13.97, -24.07, -25.48, -24.70, -21.06, -18.17, 0.000, 0.000, 0.000, 03:43:28.620
120, -20.83, -26.53, -18.42, -21.97, -25.15, -14.77, -16.74, -22.24, -18.66, -23.56, -13.84, -24.25, -25.35, -24.81, -21.01, -18.13, 0.000, 0.000, 0.000, 03:43:28.624
121, -21.14, -26.64, -18.60, -22.15, -24.99, -15.04, -16.63, -22.26, -18.66, -23.56, -13.84, -24.25, -25.35, -24.81, -21.01, -18.13, 0.000, 0.000, 0.000, 03:43:28.629
122, -21.14, -26.64, -18.60, -22.15, -24.99, -15.04, -16.63, -22.26, -18.82, -23.49, -13.97, -24.01, -25.37, -24.70, -21.10, -17.90, 0.000, 0.000, 0.000, 03:43:28.633
123, -20.68, -26.78, -18.60, -22.42, -25.08, -15.04, -16.58, -22.28, -18.82, -23.49, -13.97, -24.01, -25.37, -24.70, -21.10, -17.90, 0.000, 0.000, 0.000, 03:43:28.638
124, -20.68, -26.78, -18.60, -22.42, -25.08, -15.04, -16.58, -22.28, -19.02, -23.54, -13.88, -24.07, -25.44, -24.83, -21.17, -17.97, 0.014, 0.944, 0.296, 03:43:28.640
125, -20.68, -26.78, -18.37, -22.20, -24.94, -15.00, -16.72, -22.22, -19.02, -23.54, -13.88, -24.07, -25.44, -24.83, -21.17, -17.97, 0.000, 0.000, 0.000, 03:43:28.644
126, -20.68, -26.78, -18.37, -22.20, -24.94, -15.00, -16.72, -22.22, -19.11, -23.47, -13.99, -23.94, -25.30, -25.01, -21.03, -18.10, 0.000, 0.000, 0.000, 03:43:28.648
127, -20.61, -26.87, -18.55, -22.08, -24.86, -14.93, -16.83, -21.99, -19.11, -23.47, -13.99, -23.94, -25.30, -25.01, -21.03, -18.10, 0.000, 0.000, 0.000, 03:43:28.652
128, -20.61, -26.87, -18.55, -22.08, -24.86, -14.93, -16.83, -21.99, -18.84, -23.34, -14.10, -23.94, -25.46, -24.72, -21.37, -18.08, 0.000, 0.000, 0.000, 03:43:28.657
129, -20.61, -26.78, -18.69, -22.20, -25.03, -14.93, -16.70, -21.90, -18.84, -23.34, -14.10, -23.94, -25.46, -24.72, -21.37, -18.08, 0.000, 0.000, 0.000, 03:43:28.660
130, -20.61, -26.78, -18.69, -22.20, -25.03, -14.93, -16.70, -21.90, -18.73, -23.45, -13.77, -23.94, -25.35, -24.90, -21.37, -18.28, 0.000, 0.000, 0.000, 03:43:28.665
131, -20.79, -26.80, -18.62, -22.17, -24.97, -15.00, -16.63, -22.02, -18.73, -23.45, -13.77, -23.94, -25.35, -24.90, -21.37, -18.28, 0.000, 0.000, 0.000, 03:43:28.669
132, -20.79, -26.80, -18.62, -22.17, -24.97, -15.00, -16.63, -22.02, -18.82, -23.25, -13.79, -24.03, -25.46, -24.68, -21.17, -18.02, 0.000, 0.000, 0.000, 03:43:28.672
133, -20.83, -26.58, -18.42, -22.20, -25.03, -14.98, -16.88, -22.20, -18.82, -23.25, -13.79, -24.03, -25.46, -24.68, -21.17, -18.02, 0.000, 0.000, 0.000, 03:43:28.677
134, -20.83, -26.58, -18.42, -22.20, -25.03, -14.98, -16.88, -22.20, -18.78, -23.09, -14.06, -23.78, -25.24, -24.88, -21.30, -18.10, 0.020, 0.942, 0.292, 03:43:28.680
135, -20.70, -26.82, -18.64, -22.22, -24.88, -15.00, -16.79, -21.95, -18.78, -23.09, -14.06, -23.78, -25.24, -24.88, -21.30, -18.10, 0.000, 0.000, 0.000, 03:43:28.685
136, -20.70, -26.82, -18.64, -22.22, -24.88, -15.00, -16.79, -21.95, -18.78, -23.18, -14.13, -23.94, -25.32, -24.70, -21.17, -18.15, 0.000, 0.000, 0.000, 03:43:28.689
137, -20.72, -26.87, -18.48, -22.40, -25.01, -15.04, -16.67, -22.35, -18.78, -23.18, -14.13, -23.94, -25.32, -24.70, -21.17, -18.15, 0.000, 0.000, 0.000, 03:43:28.692
138, -20.72, -26.87, -18.48, -22.40, -25.01, -15.04, -16.67, -22.35, -18.69, -23.36, -14.04, -24.03, -25.39, -24.88, -21.19, -17.99, 0.000, 0.000, 0.000, 03:43:28.697
139, -20.68, -26.55, -18.51, -21.84, -25.12, -14.89, -16.81, -22.13, -18.69, -23.36, -14.04, -24.03, -25.39, -24.88, -21.19, -17.99, 0.000, 0.000, 0.000, 03:43:28.700
140, -20.68, -26.55, -18.51, -21.84, -25.12, -14.89, -16.81, -22.13, -19.02, -23.36, -13.88, -23.83, -25.37, -24.77, -21.01, -17.93, 0.000, 0.000, 0.000, 03:43:28.704
141, -20.79, -26.71, -18.31, -21.99, -25.03, -14.75, -16.76, -22.24, -19.02, -23.36, -13.88, -23.83, -25.37, -24.77, -21.01, -17.93, 0.000, 0.000, 0.000, 03:43:28.709
142, -20.79, -26.71, -18.31, -21.99, -25.03, -14.75, -16.76, -22.24, -18.73, -23.49, -13.95, -24.10, -25.44, -24.86, -20.94, -17.99, 0.000, 0.000, 0.000, 03:43:28.713
143, -20.81, -26.44, -18.73, -22.22, -24.74, -14.95, -16.96, -22.17, -18.73, -23.49, -13.95, -24.10, -25.44, -24.86, -20.94, -17.99, 0.000, 0.000, 0.000, 03:43:28.716
144, -20.81, -26.44, -18.73, -22.22, -24.74, -14.95, -16.96, -22.17, -19.02, -23.27, -13.97, -24.18, -25.39, -24.86, -21.10, -18.08, 0.018, 0.944, 0.288, 03:43:28.720
145, -20.74, -26.40, -18.51, -22.11, -24.90, -14.98, -16.67, -22.02, -19.02, -23.27, -13.97, -24.18, -25.39, -24.86, -21.10, -18.08, 0.000, 0.000, 0.000, 03:43:28.724
146, -20.74, -26.40, -18.51, -22.11, -24.90, -14.98, -16.67, -22.02, -18.93, -23.54, -13.95, -24.01, -25.32, -24.83, -21.08, -17.97, 0.000, 0.000, 0.000, 03:43:28.727
147, -20.79, -26.51, -18.53, -22.17, -24.72, -14.84, -16.58, -22.11, -18.93, -23.54, -13.95, -24.01, -25.32, -24.83, -21.08, -17.97, 0.000, 0.000, 0.000, 03:43:28.733
148, -20.79, -26.51, -18.53, -22.17, -24.72, -14.84, -16.58, -22.11, -18.86, -23.36, -13.99, -23.85, -25.35, -24.92, -20.97, -18.08, 0.000, 0.000, 0.000, 03:43:28.737
149, -20.72, -26.60, -18.53, -22.17, -24.77, -14.89, -16.54, -22.22, -18.86, -23.36, -13.99, -23.85, -25.35, -24.92, -20.97, -18.08, 0.000, 0.000, 0.000, 03:43:28.741
150, -20.72, -26.60, -18.53, -22.17, -24.77, -14.89, -16.54, -22.22, -18.71, -23.87, -13.93, -23.92, -25.24, -24.94, -21.08, -18.06, 0.000, 0.000, 0.000, 03:43:28.745
151, -20.72, -26.49, -18.51, -22.04, -25.08, -15.15, -16.58, -21.88, -18.71, -23.87, -13.93, -23.92, -25.24, -24.94, -21.08, -18.06, 0.000, 0.000, 0.000, 03:43:28.747
152, -20.72, -26.49, -18.51, -22.04, -25.08, -15.15, -16.58, -21.88, -18.86, -23.42, -13.90, -23.80, -25.32, -24.70, -21.19, -18.24, 0.000, 0.000, 0.000, 03:43:28.752
153, -20.85, -26.49, -18.31, -22.06, -24.97, -15.02, -16.61, -21.93, -18.86, -23.42, -13.90, -23.80, -25.32, -24.70, -21.19, -18.24, 0.000, 0.000, 0.000, 03:43:28.755
154, -20.85, -26.49, -18.31, -22.06, -24.97, -15.02, -16.61, -21.93, -19.00, -23.34, -13.88, -23.89, -25.39, -24.88, -21.01, -17.75, 0.020, 0.952, 0.300, 03:43:28.760
155, -20.88, -26.73, -18.40, -22.02, -24.94, -15.00, -16.79, -21.90, -19.00, -23.34, -13.88, -23.89, -25.39, -24.88, -21.01, -17.75, 0.000, 0.000, 0.000, 03:43:28.765
156, -20.88, -26.73, -18.40, -22.02, -24.94, -15.00, -16.79, -21.90, -18.69, -23.58, -13.84, -23.85, -25.57, -24.86, -21.30, -17.84, 0.000, 0.000, 0.000, 03:43:28.768
157, -20.88, -26.64, -18.64, -22.22, -25.17, -14.86, -16.81, -22.02, -18.69, -23.58, -13.84, -23.85, -25.57, -24.86, -21.30, -17.84, 0.000, 0.000, 0.000, 03:43:28.773
158, -20.88, -26.64, -18.64, -22.22, -25.17, -14.86, -16.81, -22.02, -18.80, -23.42, -13.88, -23.83, -25.41, -24.72, -21.12, -17.99, 0.000, 0.000, 0.000, 03:43:28.776
159, -20.61, -26.55, -18.57, -22.20, -24.97, -15.02, -16.70, -22.13, -18.80, -23.42, -13.88, -23.83, -25.41, -24.72, -21.12, -17.99, 0.000, 0.000, 0.000, 03:43:28.780
160, -20.61, -26.55, -18.57, -22.20, -24.97, -15.02, -16.70, -22.13, -18.91, -23.42, -14.04, -24.16, -25.32, -24.83, -21.32, -18.02, 0.000, 0.000, 0.000, 03:43:28.784
161, -20.88, -26.46, -18.62, -22.22, -24.88, -14.98, -16.74, -22.15, -18.91, -23.42, -14.04, -24.16, -25.32, -24.83, -21.32, -18.02, 0.000, 0.000, 0.000, 03:43:28.790
162, -20.88, -26.46, -18.62, -22.22, -24.88, -14.98, -16.74, -22.15, -18.91, -23.40, -13.93, -23.94, -25.21, -24.97, -21.14, -18.24, 0.000, 0.000, 0.000, 03:43:28.792
163, -20.63, -26.64, -18.53, -21.99, -25.03, -14.91, -16.74, -22.33, -18.91, -23.40, -13.93, -23.94, -25.21, -24.97, -21.14, -18.24, 0.000, 0.000, 0.000, 03:43:28.797
164, -20.63, -26.64, -18.53, -21.99, -25.03, -14.91, -16.74, -22.33, -18.89, -23.34, -13.77, -23.92, -25.37, -24.74, -21.14, -18.15, 0.020, 0.956, 0.300, 03:43:28.801
165, -20.97, -26.60, -18.46, -22.15, -25.01, -14.86, -16.81, -22.13, -18.89, -23.34, -13.77, -23.92, -25.37, -24.74, -21.14, -18.15, 0.000, 0.000, 0.000, 03:43:28.803
166, -20.97, -26.60, -18.46, -22.15, -25.01, -14.86, -16.81, -22.13, -18.95, -23.38, -13.97, -23.74, -25.37, -24.88, -21.03, -18.13, 0.000, 0.000, 0.000, 03:43:28.808
167, -20.88, -26.49, -18.57, -22.26, -25.06, -14.89, -16.54, -22.20, -18.95, -23.38, -13.97, -23.74, -25.37, -24.88, -21.03, -18.13, 0.000, 0.000, 0.000, 03:43:28.812
168, -20.88, -26.49, -18.57, -22.26, -25.06, -14.89, -16.54, -22.20, -18.93, -23.49, -13.68, -24.01, -25.32, -24.86, -21.21, -18.04, 0.000, 0.000, 0.000, 03:43:28.815
169, -20.88, -26.49, -18.51, -22.37, -25.08, -14.84, -16.79, -22.37, -18.93, -23.49, -13.68, -24.01, -25.32, -24.86, -21.21, -18.04, 0.000, 0.000, 0.000, 03:43:28.820
170, -20.88, -26.49, -18.51, -22.37, -25.08, -14.84, -16.79, -22.37, -18.73, -23.38, -13.79, -23.98, -25.24, -24.79, -21.32, -18.08, 0.000, 0.000, 0.000, 03:43:28.825
171, -20.63, -26.69, -18.48, -22.17, -24.97, -14.93, -16.63, -22.31, -18.73, -23.38, -13.79, -23.98, -25.24, -24.79, -21.32, -18.08, 0.000, 0.000, 0.000, 03:43:28.827
172, -20.63, -26.69, -18.48, -22.17, -24.97, -14.93, -16.63, -22.31, -19.00, -23.54, -14.01, -24.03, -25.30, -24.63, -21.19, -18.08, 0.000, 0.000, 0.000, 03:43:28.832
173, -20.74, -26.82, -18.55, -22.02, -25.06, -14.82, -16.58, -21.90, -19.00, -23.54, -14.01, -24.03, -25.30, -24.63, -21.19, -18.08, 0.000, 0.000, 0.000, 03:43:28.836
174, -20.74, -26.82, -18.55, -22.02, -25.06, -14.82, -16.58, -21.90, -18.69, -23.31, -13.75, -24.25, -25.24, -24.70, -21.46, -17.79, 0.024, 0.952, 0.296, 03:43:28.840
175, -20.76, -26.58, -18.69, -22.13, -25.03, -14.84, -16.72, -21.86, -18.69, -23.31, -13.75, -24.25, -25.24, -24.70, -21.46, -17.79, 0.000, 0.000, 0.000, 03:43:28.843
176, -20.76, -26.58, -18.69, -22.13, -25.03, -14.84, -16.72, -21.86, -19.00, -23.49, -13.95, -24.10, -25.44, -24.92, -21.08, -18.02, 0.000, 0.000, 0.000, 03:43:28.849
177, -20.94, -26.55, -18.71, -22.15, -25.12, -15.09, -16.76, -22.17, -19.00, -23.49, -13.95, -24.10, -25.44, -24.92, -21.08, -18.02, 0.000, 0.000, 0.000, 03:43:28.853
178, -20.94, -26.55, -18.71, -22.15, -25.12, -15.09, -16.76, -22.17, -18.86, -23.45, -13.95, -23.98, -25.28, -24.72, -21.14, -17.93, 0.000, 0.000, 0.000, 03:43:28.855
179, -20.79, -26.40, -18.44, -22.26, -24.97, -15.20, -16.63, -22.26, -18.86, -23.45, -13.95, -23.98, -25.28, -24.72, -21.14, -17.93, 0.000, 0.000, 0.000, 03:43:28.860
180, -20.79, -26.40, -18.44, -22.26, -24.97, -15.20, -16.63, -22.26, -18.78, -23.47, -14.10, -23.89, -25.50, -24.65, -21.50, -18.13, 0.000, 0.000, 0.000, 03:43:28.864
181, -20.79, -26.46, -18.64, -22.20, -24.92, -15.02, -16.81, -22.24, -18.78, -23.47, -14.10, -23.89, -25.50, -24.65, -21.50, -18.13, 0.000, 0.000, 0.000, 03:43:28.869
182, -20.79, -26.46, -18.64, -22.20, -24.92, -15.02, -16.81, -22.24, -18.82, -23.22, -14.06, -24.01, -25.46, -24.77, -21.19, -17.97, 0.000, 0.000, 0.000, 03:43:28.872
183, -20.65, -26.51, -18.71, -22.11, -25.10, -15.02, -16.67, -22.49, -18.82, -23.22, -14.06, -24.01, -25.46, -24.77, -21.19, -17.97, 0.022, 0.950, 0.292, 03:43:28.876
184, -20.65, -26.51, -18.71, -22.11, -25.10, -15.02, -16.67, -22.49, -18.75, -23.51, -13.72, -23.96, -25.48, -24.88, -21.23, -17.95, 0.000, 0.000, 0.000, 03:43:28.881
185, -20.74, -26.60, -18.64, -22.02, -24.99, -14.80, -16.92, -22.20, -18.75, -23.51, -13.72, -23.96, -25.48, -24.88, -21.23, -17.95, 0.000, 0.000, 0.000, 03:43:28.884
186, -20.74, -26.60, -18.64, -22.02, -24.99, -14.80, -16.92, -22.20, -19.02, -23.47, -13.86, -23.96, -25.24, -24.79, -21.21, -17.86, 0.000, 0.000, 0.000, 03:43:28.888
187, -20.79, -26.69, -18.64, -22.17, -24.94, -14.93, -16.79, -22.15, -19.02, -23.47, -13.86, -23.96, -25.24, -24.79, -21.21, -17.86, 0.000, 0.000, 0.000, 03:43:28.892
188, -20.79, -26.69, -18.64, -22.17, -24.94, -14.93, -16.79, -22.15, -18.80, -23.65, -13.99, -23.89, -25.32, -24.83, -21.12, -17.90, 0.000, 0.000, 0.000, 03:43:28.896
189, -20.92, -26.62, -18.71, -22.11, -25.01, -14.91, -16.76, -22.37, -18.80, -23.65, -13.99, -23.89, -25.32, -24.83, -21.12, -17.90, 0.000, 0.000, 0.000, 03:43:28.900
190, -20.92, -26.62, -18.71, -22.11, -25.01, -14.91, -16.76, -22.37, -18.89, -23.36, -13.68, -23.94, -25.30, -24.90, -21.12, -18.02, 0.000, 0.000, 0.000, 03:43:28.904
191, -20.72, -26.78, -18.73, -21.93, -25.06, -14.95, -16.90, -22.17, -18.89, -23.36, -13.68, -23.94, -25.30, -24.90, -21.12, -18.02, 0.000, 0.000, 0.000, 03:43:28.909
192, -20.72, -26.78, -18.73, -21.93, -25.06, -14.95, -16.90, -22.17, -19.00, -23.67, -13.93, -24.01, -25.24, -24.97, -21.14, -18.24, 0.000, 0.000, 0.000, 03:43:28.913
193, -20.59, -26.71, -18.37, -21.88, -25.12, -14.93, -16.79, -21.99, -19.00, -23.67, -13.93, -24.01, -25.24, -24.97, -21.14, -18.24, 0.024, 0.944, 0.298, 03:43:28.916
194, -20.59, -26.71, -18.37, -21.88, -25.12, -14.93, -16.79, -21.99, -18.93, -23.56, -13.79, -23.98, -25.37, -24.99, -21.26, -18.08, 0.000, 0.000, 0.000, 03:43:28.920
195, -20.61, -26.69, -18.44, -22.06, -24.99, -14.95, -17.10, -22.11, -18.93, -23.56, -13.79, -23.98, -25.37, -24.99, -21.26, -18.08, 0.000, 0.000, 0.000, 03:43:28.924
196, -20.61, -26.69, -18.44, -22.06, -24.99, -14.95, -17.10, -22.11, -18.78, -23.65, -13.86, -23.92, -25.46, -24.99, -21.23, -18.10, 0.000, 0.000, 0.000, 03:43:28.929
197, -20.70, -26.58, -18.62, -22.26, -25.01, -14.82, -16.83, -22.15, -18.78, -23.65, -13.86, -23.92, -25.46, -24.99, -21.23, -18.10, 0.000, 0.000, 0.000, 03:43:28.933
198, -20.70, -26.58, -18.62, -22.26, -25.01, -14.82, -16.83, -22.15, -18.89, -23.56, -14.15, -23.98, -25.53, -24.90, -21.12, -18.17, 0.000, 0.000, 0.000, 03:43:28.935
199, -20.92, -26.51, -18.64, -22.04, -24.94, -15.00, -16.61, -22.06, -18.89, -23.56, -14.15, -23.98, -25.53, -24.90, -21.12, -18.17, 0.000, 0.000, 0.000, 03:43:28.941
200, -20.92, -26.51, -18.64, -22.04, -24.94, -15.00, -16.61, -22.06, -18.84, -23.47, -13.90, -24.14, -25.39, -24.72, -21.19, -17.81, 0.000, 0.000, 0.000, 03:43:28.945
201, -20.85, -26.58, -18.53, -22.15, -24.83, -15.02, -16.92, -22.31, -18.84, -23.47, -13.90, -24.14, -25.39, -24.72, -21.19, -17.81, 0.000, 0.000, 0.000, 03:43:28.948
202, -20.85, -26.58, -18.53, -22.15, -24.83, -15.02, -16.92, -22.31, -18.91, -23.47, -14.08, -23.98, -25.37, -24.90, -21.19, -17.97, 0.000, 0.000, 0.000, 03:43:28.953
203, -20.81, -26.62, -18.48, -22.04, -24.94, -14.84, -16.76, -22.04, -18.91, -23.47, -14.08, -23.98, -25.37, -24.90, -21.19, -17.97, 0.018, 0.940, 0.306, 03:43:28.957
204, -20.81, -26.62, -18.48, -22.04, -24.94, -14.84, -16.76, -22.04, -18.98, -23.60, -14.01, -23.94, -25.28, -24.65, -21.08, -18.06, 0.000, 0.000, 0.000, 03:43:28.961
205, -20.79, -26.49, -18.40, -22.13, -25.10, -14.86, -16.58, -21.79, -18.98, -23.60, -14.01, -23.94, -25.28, -24.65, -21.08, -18.06, 0.000, 0.000, 0.000, 03:43:28.964
206, -20.79, -26.49, -18.40, -22.13, -25.10, -14.86, -16.58, -21.79, -18.82, -23.63, -13.86, -24.01, -25.57, -24.63, -21.28, -17.95, 0.000, 0.000, 0.000, 03:43:28.967
