%OpenBCI Raw EEG Data
%
%Sample Rate = 250.0 Hz
%First Column = SampleIndex
%Last Column = Timestamp 
%Other Columns = EEG data in microvolts followed by Accel Data (in G) interleaved with Aux Data
1, -20.63, -26.46, -18.48, -22.11, -25.15, -14.75, -16.83, -22.20, 0.00, 0.00, 0.00, 0.00, 0.00, 0.00, 0.00, 0.00, 0.000, 0.000, 0.000, 03:59:44.506
2, -20.63, -26.46, -18.48, -22.11, -25.15, -14.75, -16.83, -22.20, -18.91, -23.36, -13.86, -24.01, -25.28, -24.86, -21.23, -18.06, 0.000, 0.000, 0.000, 03:59:44.510
3, -20.47, -26.51, -18.53, -21.93, -25.06, -14.95, -16.50, -22.15, -18.91, -23.36, -13.86, -24.01, -25.28, -24.86, -21.23, -18.06, 0.000, 0.000, 0.000, 03:59:44.514
4, -20.47, -26.51, -18.53, -21.93, -25.06, -14.95, -16.50, -22.15, -18.80, -23.56, -13.86, -24.10, -25.41, -24.83, -21.21, -18.08, 0.000, 0.000, 0.000, 03:59:44.517
5, -20.70, -26.46, -18.42, -21.93, -24.99, -14.91, -16.74, -21.99, -18.80, -23.56, -13.86, -24.10, -25.41, -24.83, -21.21, -18.08, 0.000, 0.000, 0.000, 03:59:44.522
6, -20.70, -26.46, -18.42, -21.93, -24.99, -14.91, -16.74, -21.99, -18.75, -23.38, -13.90, -23.92, -25.39, -24.63, -21.21, -18.35, 0.016, 0.952, 0.292, 03:59:44.526
7, -20.72, -26.55, -18.40, -22.02, -25.03, -15.00, -16.79, -21.90, -18.75, -23.38, -13.90, -23.92, -25.39, -24.63, -21.21, -18.35, 0.000, 0.000, 0.000, 03:59:44.530
8, -20.72, -26.55, -18.40, -22.02, -25.03, -15.00, -16.79, -21.90, -19.00, -23.45, -13.90, -24.03, -25.35, -24.70, -21.08, -18.04, 0.000, 0.000, 0.000, 03:59:44.533
9, -20.65, -26.53, -18.48, -22.06, -25.06, -14.91, -16.72, -22.31, -19.00, -23.45, -13.90, -24.03, -25.35, -24.70, -21.08, -18.04, 0.000, 0.000, 0.000, 03:59:44.538
10, -20.65, -26.53, -18.48, -22.06, -25.06, -14.91, -16.72, -22.31, -18.95, -23.80, -13.90, -23.94, -25.28, -24.92, -21.03, -17.95, 0.000, 0.000, 0.000, 03:59:44.544
11, -20.79, -26.55, -18.55, -21.95, -24.92, -14.95, -16.76, -22.11, -18.95, -23.80, -13.90, -23.94, -25.28, -24.92, -21.03, -17.95, 0.000, 0.000, 0.000, 03:59:44.546
12, -20.79, -26.55, -18.55, -21.95, -24.92, -14.95, -16.76, -22.11, -18.95, -23.60, -13.77, -24.03, -25.37, -24.83, -21.19, -17.97, 0.000, 0.000, 0.000, 03:59:44.550
13, -20.43, -26.46, -18.60, -22.08, -24.90, -15.02, -16.56, -22.06, -18.95, -23.60, -13.77, -24.03, -25.37, -24.83, -21.19, -17.97, 0.000, 0.000, 0.000, 03:59:44.554
14, -20.43, -26.46, -18.60, -22.08, -24.90, -15.02, -16.56, -22.06, -18.53, -23.27, -13.99, -23.96, -25.26, -24.54, -21.12, -18.10, 0.000, 0.000, 0.000, 03:59:44.557
15, -20.63, -26.31, -18.48, -22.20, -24.83, -14.91, -16.74, -22.08, -18.53, -23.27, -13.99, -23.96, -25.26, -24.54, -21.12, -18.10, 0.000, 0.000, 0.000, 03:59:44.562
16, -20.63, -26.31, -18.48, -22.20, -24.83, -14.91, -16.74, -22.08, -18.98, -23.49, -13.84, -24.01, -25.24, -24.72, -21.19, -18.31, 0.022, 0.942, 0.302, 03:59:44.566
17, -20.72, -26.51, -18.40, -22.15, -24.88, -15.09, -16.74, -22.22, -18.98, -23.49, -13.84, -24.01, -25.24, -24.72, -21.19, -18.31, 0.000, 0.000, 0.000, 03:59:44.572
18, -20.72, -26.51, -18.40, -22.15, -24.88, -15.09, -16.74, -22.22, -19.16, -23.54, -13.97, -23.89, -25.24, -24.94, -21.10, -17.99, 0.000, 0.000, 0.000, 03:59:44.575
19, -20.54, -26.58, -18.55, -21.95, -24.90, -15.04, -16.67, -21.99, -19.16, -23.54, -13.97, -23.89, -25.24, -24.94, -21.10, -17.99, 0.000, 0.000, 0.000, 03:59:44.578
20, -20.54, -26.58, -18.55, -21.95, -24.90, -15.04, -16.67, -21.99, -18.98, -23.34, -14.01, -23.87, -25.37, -24.94, -21.08, -18.08, 0.000, 0.000, 0.000, 03:59:44.581
21, -20.45, -26.51, -18.53, -22.22, -24.92, -14.77, -16.79, -22.15, -18.98, -23.34, -14.01, -23.87, -25.37, -24.94, -21.08, -18.08, 0.000, 0.000, 0.000, 03:59:44.586
22, -20.45, -26.51, -18.53, -22.22, -24.92, -14.77, -16.79, -22.15, -18.78, -23.38, -13.93, -23.94, -25.39, -24.86, -21.06, -17.90, 0.000, 0.000, 0.000, 03:59:44.590
23, -20.81, -26.49, -18.57, -22.13, -24.97, -14.77, -16.81, -22.02, -18.78, -23.38, -13.93, -23.94, -25.39, -24.86, -21.06, -17.90, 0.000, 0.000, 0.000, 03:59:44.593
24, -20.81, -26.49, -18.57, -22.13, -24.97, -14.77, -16.81, -22.02, -18.91, -23.31, -13.81, -23.92, -25.32, -24.90, -21.12, -17.86, 0.000, 0.000, 0.000, 03:59:44.598
25, -20.56, -26.67, -18.62, -22.11, -24.79, -15.00, -16.56, -21.99, -18.91, -23.31, -13.81, -23.92, -25.32, -24.90, -21.12, -17.86, 0.000, 0.000, 0.000, 03:59:44.602
26, -20.56, -26.67, -18.62, -22.11, -24.79, -15.00, -16.56, -21.99, -18.95, -23.34, -14.04, -24.03, -25.24, -24.72, -21.08, -18.06, 0.014, 0.916, 0.296, 03:59:44.605
27, -20.76, -26.51, -18.53, -22.04, -24.97, -15.07, -16.92, -22.08, -18.95, -23.34, -14.04, -24.03, -25.24, -24.72, -21.08, -18.06, 0.000, 0.000, 0.000, 03:59:44.609
28, -20.76, -26.51, -18.53, -22.04, -24.97, -15.07, -16.92, -22.08, -18.71, -23.42, -13.97, -24.05, -25.03, -24.79, -21.17, -18.19, 0.000, 0.000, 0.000, 03:59:44.613
29, -20.63, -26.71, -18.57, -22.06, -25.03, -15.04, -16.74, -21.95, -18.71, -23.42, -13.97, -24.05, -25.03, -24.79, -21.17, -18.19, 0.000, 0.000, 0.000, 03:59:44.617
30, -20.63, -26.71, -18.57, -22.06, -25.03, -15.04, -16.74, -21.95, -18.98, -23.34, -14.13, -23.80, -25.32, -24.83, -21.21, -18.15, 0.000, 0.000, 0.000, 03:59:44.622
31, -20.56, -26.46, -18.48, -22.06, -25.06, -14.89, -16.81, -21.84, -18.98, -23.34, -14.13, -23.80, -25.32, -24.83, -21.21, -18.15, 0.000, 0.000, 0.000, 03:59:44.626
32, -20.56, -26.46, -18.48, -22.06, -25.06, -14.89, -16.81, -21.84, -19.00, -23.51, -13.86, -23.85, -25.32, -24.86, -21.17, -18.31, 0.000, 0.000, 0.000, 03:59:44.629
33, -20.63, -26.58, -18.69, -22.20, -24.81, -14.84, -16.74, -22.06, -19.00, -23.51, -13.86, -23.85, -25.32, -24.86, -21.17, -18.31, 0.000, 0.000, 0.000, 03:59:44.633
34, -20.63, -26.58, -18.69, -22.20, -24.81, -14.84, -16.74, -22.06, -18.71, -23.36, -13.70, -23.92, -25.37, -24.68, -21.32, -18.08, 0.000, 0.000, 0.000, 03:59:44.637
35, -20.70, -26.49, -18.46, -22.11, -25.12, -14.95, -16.67, -22.08, -18.71, -23.36, -13.70, -23.92, -25.37, -24.68, -21.32, -18.08, 0.000, 0.000, 0.000, 03:59:44.641
36, -20.70, -26.49, -18.46, -22.11, -25.12, -14.95, -16.67, -22.08, -18.69, -23.42, -13.77, -23.98, -25.37, -24.63, -21.08, -18.13, 0.022, 0.942, 0.302, 03:59:44.645
37, -20.63, -26.35, -18.51, -22.06, -24.99, -14.91, -16.72, -22.17, -18.69, -23.42, -13.77, -23.98, -25.37, -24.63, -21.08, -18.13, 0.000, 0.000, 0.000, 03:59:44.651
38, -20.63, -26.35, -18.51, -22.06, -24.99, -14.91, -16.72, -22.17, -19.00, -23.29, -13.75, -24.05, -25.15, -24.74, -21.12, -18.10, 0.000, 0.000, 0.000, 03:59:44.655
39, -20.90, -26.64, -18.55, -22.08, -24.94, -14.86, -16.65, -22.04, -19.00, -23.29, -13.75, -24.05, -25.15, -24.74, -21.12, -18.10, 0.000, 0.000, 0.000, 03:59:44.658
40, -20.90, -26.64, -18.55, -22.08, -24.94, -14.86, -16.65, -22.04, -19.11, -23.34, -13.84, -24.10, -25.10, -24.74, -21.12, -18.13, 0.000, 0.000, 0.000, 03:59:44.661
41, -20.72, -26.62, -18.48, -22.26, -24.70, -14.95, -16.88, -21.97, -19.11, -23.34, -13.84, -24.10, -25.10, -24.74, -21.12, -18.13, 0.000, 0.000, 0.000, 03:59:44.665
42, -20.72, -26.62, -18.48, -22.26, -24.70, -14.95, -16.88, -21.97, -18.91, -23.36, -13.97, -24.21, -25.35, -24.63, -21.01, -18.15, 0.000, 0.000, 0.000, 03:59:44.669
43, -20.70, -26.71, -18.51, -22.13, -24.83, -14.89, -16.65, -21.84, -18.91, -23.36, -13.97, -24.21, -25.35, -24.63, -21.01, -18.15, 0.000, 0.000, 0.000, 03:59:44.675
44, -20.70, -26.71, -18.51, -22.13, -24.83, -14.89, -16.65, -21.84, -19.00, -23.67, -14.10, -23.96, -25.48, -24.61, -21.01, -18.13, 0.000, 0.000, 0.000, 03:59:44.679
45, -20.56, -26.51, -18.57, -22.02, -24.94, -14.73, -16.83, -22.04, -19.00, -23.67, -14.10, -23.96, -25.48, -24.61, -21.01, -18.13, 0.000, 0.000, 0.000, 03:59:44.682
46, -20.56, -26.51, -18.57, -22.02, -24.94, -14.73, -16.83, -22.04, -18.71, -23.42, -14.13, -23.89, -25.44, -24.88, -20.97, -17.95, 0.026, 0.926, 0.300, 03:59:44.685
47, -20.74, -26.55, -18.51, -22.08, -24.86, -14.71, -16.61, -22.20, -18.71, -23.42, -14.13, -23.89, -25.44, -24.88, -20.97, -17.95, 0.000, 0.000, 0.000, 03:59:44.689
48, -20.74, -26.55, -18.51, -22.08, -24.86, -14.71, -16.61, -22.20, -18.60, -23.34, -13.86, -24.05, -25.37, -24.90, -21.39, -18.04, 0.000, 0.000, 0.000, 03:59:44.694
49, -20.63, -26.55, -18.35, -22.11, -24.70, -14.86, -16.67, -22.11, -18.60, -23.34, -13.86, -24.05, -25.37, -24.90, -21.39, -18.04, 0.000, 0.000, 0.000, 03:59:44.697
50, -20.63, -26.55, -18.35, -22.11, -24.70, -14.86, -16.67, -22.11, -18.86, -23.45, -13.81, -23.96, -25.35, -24.97, -21.23, -18.10, 0.000, 0.000, 0.000, 03:59:44.701
51, -20.74, -26.62, -18.55, -22.15, -25.15, -14.86, -16.88, -22.17, -18.86, -23.45, -13.81, -23.96, -25.35, -24.97, -21.23, -18.10, 0.000, 0.000, 0.000, 03:59:44.706
52, -20.74, -26.62, -18.55, -22.15, -25.15, -14.86, -16.88, -22.17, -19.09, -23.45, -13.93, -23.96, -25.48, -24.81, -21.35, -18.10, 0.000, 0.000, 0.000, 03:59:44.710
53, -20.65, -26.55, -18.62, -22.04, -24.92, -15.04, -16.92, -22.22, -19.09, -23.45, -13.93, -23.96, -25.48, -24.81, -21.35, -18.10, 0.000, 0.000, 0.000, 03:59:44.714
54, -20.65, -26.55, -18.62, -22.04, -24.92, -15.04, -16.92, -22.22, -18.84, -23.31, -13.93, -23.94, -25.32, -24.81, -21.19, -18.15, 0.000, 0.000, 0.000, 03:59:44.718
55, -20.54, -26.60, -18.44, -22.06, -25.10, -14.84, -16.79, -22.28, -18.84, -23.31, -13.93, -23.94, -25.32, -24.81, -21.19, -18.15, 0.000, 0.000, 0.000, 03:59:44.721
56, -20.54, -26.60, -18.44, -22.06, -25.10, -14.84, -16.79, -22.28, -18.80, -23.54, -14.08, -23.94, -25.41, -24.72, -21.10, -18.02, 0.016, 0.940, 0.294, 03:59:44.725
57, -20.65, -26.62, -18.40, -22.02, -25.08, -14.75, -16.67, -22.17, -18.80, -23.54, -14.08, -23.94, -25.41, -24.72, -21.10, -18.02, 0.000, 0.000, 0.000, 03:59:44.732
58, -20.65, -26.62, -18.40, -22.02, -25.08, -14.75, -16.67, -22.17, -18.82, -23.54, -13.95, -23.96, -25.48, -24.61, -20.97, -17.97, 0.000, 0.000, 0.000, 03:59:44.734
59, -20.76, -26.53, -18.46, -21.97, -25.15, -15.11, -16.76, -22.15, -18.82, -23.54, -13.95, -23.96, -25.48, -24.61, -20.97, -17.97, 0.000, 0.000, 0.000, 03:59:44.738
60, -20.76, -26.53, -18.46, -21.97, -25.15, -15.11, -16.76, -22.15, -19.13, -23.42, -13.75, -23.87, -25.46, -24.72, -21.10, -17.84, 0.000, 0.000, 0.000, 03:59:44.741
61, -20.88, -26.51, -18.60, -22.15, -25.08, -14.95, -16.67, -21.86, -19.13, -23.42, -13.75, -23.87, -25.46, -24.72, -21.10, -17.84, 0.000, 0.000, 0.000, 03:59:44.745
62, -20.88, -26.51, -18.60, -22.15, -25.08, -14.95, -16.67, -21.86, -18.64, -23.51, -13.77, -24.05, -25.30, -24.68, -21.17, -18.13, 0.000, 0.000, 0.000, 03:59:44.749
63, -20.92, -26.62, -18.60, -22.04, -24.81, -14.86, -16.72, -22.02, -18.64, -23.51, -13.77, -24.05, -25.30, -24.68, -21.17, -18.13, 0.000, 0.000, 0.000, 03:59:44.753
64, -20.92, -26.62, -18.60, -22.04, -24.81, -14.86, -16.72, -22.02, -18.80, -23.40, -13.88, -24.03, -25.28, -24.74, -21.10, -18.26, 0.000, 0.000, 0.000, 03:59:44.757
65, -20.72, -26.40, -18.48, -22.06, -25.10, -14.73, -16.83, -22.04, -18.80, -23.40, -13.88, -24.03, -25.28, -24.74, -21.10, -18.26, 0.014, 0.922, 0.280, 03:59:44.762
66, -20.72, -26.40, -18.48, -22.06, -25.10, -14.73, -16.83, -22.04, -18.91, -23.38, -13.86, -23.80, -25.17, -24.86, -21.10, -18.26, 0.000, 0.000, 0.000, 03:59:44.765
67, -20.76, -26.62, -18.55, -21.95, -24.90, -14.77, -16.58, -22.06, -18.91, -23.38, -13.86, -23.80, -25.17, -24.86, -21.10, -18.26, 0.000, 0.000, 0.000, 03:59:44.769
68, -20.76, -26.62, -18.55, -21.95, -24.90, -14.77, -16.58, -22.06, -18.84, -23.42, -13.84, -23.98, -25.44, -24.72, -21.08, -17.99, 0.000, 0.000, 0.000, 03:59:44.773
69, -20.72, -26.40, -18.64, -22.26, -25.03, -14.86, -16.56, -22.08, -18.84, -23.42, -13.84, -23.98, -25.44, -24.72, -21.08, -17.99, 0.000, 0.000, 0.000, 03:59:44.778
70, -20.72, -26.40, -18.64, -22.26, -25.03, -14.86, -16.56, -22.08, -19.11, -23.38, -13.93, -23.89, -25.44, -24.74, -21.17, -18.04, 0.000, 0.000, 0.000, 03:59:44.781
71, -20.65, -26.51, -18.60, -22.02, -24.99, -14.84, -16.63, -22.28, -19.11, -23.38, -13.93, -23.89, -25.44, -24.74, -21.17, -18.04, 0.000, 0.000, 0.000, 03:59:44.785
72, -20.65, -26.51, -18.60, -22.02, -24.99, -14.84, -16.63, -22.28, -18.89, -23.40, -13.86, -23.87, -25.39, -24.70, -21.12, -17.97, 0.000, 0.000, 0.000, 03:59:44.790
73, -20.74, -26.42, -18.51, -22.15, -24.81, -14.80, -16.56, -22.20, -18.89, -23.40, -13.86, -23.87, -25.39, -24.70, -21.12, -17.97, 0.000, 0.000, 0.000, 03:59:44.793
74, -20.74, -26.42, -18.51, -22.15, -24.81, -14.80, -16.56, -22.20, -18.82, -23.36, -13.97, -23.87, -25.28, -24.81, -21.37, -17.97, 0.000, 0.000, 0.000, 03:59:44.797
75, -20.61, -26.58, -18.60, -21.97, -25.03, -14.93, -16.81, -22.02, -18.82, -23.36, -13.97, -23.87, -25.28, -24.81, -21.37, -17.97, 0.014, 0.936, 0.280, 03:59:44.801
76, -20.61, -26.58, -18.60, -21.97, -25.03, -14.93, -16.81, -22.02, -18.75, -23.31, -13.81, -23.92, -25.35, -24.86, -21.30, -17.99, 0.000, 0.000, 0.000, 03:59:44.805
77, -20.61, -26.64, -18.55, -22.04, -25.01, -14.75, -16.65, -22.20, -18.75, -23.31, -13.81, -23.92, -25.35, -24.86, -21.30, -17.99, 0.000, 0.000, 0.000, 03:59:44.809
78, -20.61, -26.64, -18.55, -22.04, -25.01, -14.75, -16.65, -22.20, -18.89, -23.47, -13.88, -23.85, -25.39, -24.86, -21.19, -18.13, 0.000, 0.000, 0.000, 03:59:44.813
79, -20.59, -26.78, -18.35, -22.04, -24.92, -14.91, -16.83, -21.95, -18.89, -23.47, -13.88, -23.85, -25.39, -24.86, -21.19, -18.13, 0.000, 0.000, 0.000, 03:59:44.817
80, -20.59, -26.78, -18.35, -22.04, -24.92, -14.91, -16.83, -21.95, -18.78, -23.27, -13.90, -24.25, -25.37, -24.72, -21.26, -18.22, 0.000, 0.000, 0.000, 03:59:44.820
81, -20.76, -26.42, -18.46, -22.20, -24.94, -14.82, -16.58, -22.15, -18.78, -23.27, -13.90, -24.25, -25.37, -24.72, -21.26, -18.22, 0.000, 0.000, 0.000, 03:59:44.824
82, -20.76, -26.42, -18.46, -22.20, -24.94, -14.82, -16.58, -22.15, -19.16, -23.40, -13.86, -24.03, -25.32, -24.86, -20.99, -18.10, 0.000, 0.000, 0.000, 03:59:44.830
83, -20.52, -26.58, -18.46, -22.26, -24.97, -15.02, -16.81, -22.11, -19.16, -23.40, -13.86, -24.03, -25.32, -24.86, -20.99, -18.10, 0.000, 0.000, 0.000, 03:59:44.833
84, -20.52, -26.58, -18.46, -22.26, -24.97, -15.02, -16.81, -22.11, -18.91, -23.40, -13.75, -23.94, -25.26, -24.92, -21.01, -18.22, 0.000, 0.000, 0.000, 03:59:44.837
85, -20.61, -26.62, -18.53, -21.97, -25.10, -15.00, -16.81, -22.08, -18.91, -23.40, -13.75, -23.94, -25.26, -24.92, -21.01, -18.22, 0.008, 0.914, 0.274, 03:59:44.841
86, -20.61, -26.62, -18.53, -21.97, -25.10, -15.00, -16.81, -22.08, -18.78, -23.65, -13.63, -23.92, -25.26, -24.92, -21.06, -18.10, 0.000, 0.000, 0.000, 03:59:44.845
87, -20.68, -26.53, -18.57, -21.90, -24.81, -15.00, -16.63, -21.79, -18.78, -23.65, -13.63, -23.92, -25.26, -24.92, -21.06, -18.10, 0.000, 0.000, 0.000, 03:59:44.848
88, -20.68, -26.53, -18.57, -21.90, -24.81, -15.00, -16.63, -21.79, -18.86, -23.56, -13.86, -24.10, -25.30, -24.83, -20.92, -18.06, 0.000, 0.000, 0.000, 03:59:44.852
89, -20.52, -26.55, -18.46, -21.95, -25.01, -15.00, -16.88, -22.24, -18.86, -23.56, -13.86, -24.10, -25.30, -24.83, -20.92, -18.06, 0.000, 0.000, 0.000, 03:59:44.858
90, -20.52, -26.55, -18.46, -21.95, -25.01, -15.00, -16.88, -22.24, -19.02, -23.29, -13.90, -23.87, -25.32, -24.86, -21.01, -18.22, 0.000, 0.000, 0.000, 03:59:44.861
91, -20.74, -26.40, -18.37, -22.02, -25.12, -15.04, -16.70, -22.31, -19.02, -23.29, -13.90, -23.87, -25.32, -24.86, -21.01, -18.22, 0.000, 0.000, 0.000, 03:59:44.866
92, -20.74, -26.40, -18.37, -22.02, -25.12, -15.04, -16.70, -22.31, -19.04, -23.27, -14.08, -23.92, -25.17, -24.83, -21.12, -18.06, 0.000, 0.000, 0.000, 03:59:44.869
93, -20.83, -26.64, -18.40, -22.04, -25.08, -15.02, -16.74, -22.08, -19.04, -23.27, -14.08, -23.92, -25.17, -24.83, -21.12, -18.06, 0.000, 0.000, 0.000, 03:59:44.873
94, -20.83, -26.64, -18.40, -22.04, -25.08, -15.02, -16.74, -22.08, -18.75, -23.36, -13.86, -24.10, -25.24, -24.90, -21.10, -18.06, 0.000, 0.000, 0.000, 03:59:44.879
95, -20.81, -26.62, -18.55, -22.11, -25.10, -14.82, -16.79, -22.11, -18.75, -23.36, -13.86, -24.10, -25.24, -24.90, -21.10, -18.06, 0.012, 0.922, 0.282, 03:59:44.881
96, -20.81, -26.62, -18.55, -22.11, -25.10, -14.82, -16.79, -22.11, -18.78, -23.29, -13.86, -23.94, -25.39, -24.88, -21.12, -18.10, 0.000, 0.000, 0.000, 03:59:44.886
97, -20.61, -26.53, -18.33, -22.26, -24.92, -14.84, -16.76, -22.24, -18.78, -23.29, -13.86, -23.94, -25.39, -24.88, -21.12, -18.10, 0.000, 0.000, 0.000, 03:59:44.890
98, -20.61, -26.53, -18.33, -22.26, -24.92, -14.84, -16.76, -22.24, -18.91, -23.34, -13.97, -24.10, -25.44, -24.83, -20.97, -18.08, 0.000, 0.000, 0.000, 03:59:44.894
99, -20.88, -26.35, -18.44, -22.13, -24.77, -15.00, -16.70, -22.02, -18.91, -23.34, -13.97, -24.10, -25.44, -24.83, -20.97, -18.08, 0.000, 0.000, 0.000, 03:59:44.897
100, -20.88, -26.35, -18.44, -22.13, -24.77, -15.00, -16.70, -22.02, -18.84, -23.45, -13.95, -23.98, -25.39, -24.79, -21.28, -18.02, 0.000, 0.000, 0.000, 03:59:44.901
101, -20.76, -26.62, -18.57, -22.08, -24.97, -15.15, -16.56, -21.93, -18.84, -23.45, -13.95, -23.98, -25.39, -24.79, -21.28, -18.02, 0.000, 0.000, 0.000, 03:59:44.905
102, -20.76, -26.62, -18.57, -22.08, -24.97, -15.15, -16.56, -21.93, -18.84, -23.80, -13.97, -24.01, -25.30, -24.77, -21.14, -18.04, 0.000, 0.000, 0.000, 03:59:44.908
103, -20.85, -26.62, -18.62, -22.26, -25.01, -15.07, -16.70, -22.15, -18.84, -23.80, -13.97, -24.01, -25.30, -24.77, -21.14, -18.04, 0.000, 0.000, 0.000, 03:59:44.913
104, -20.85, -26.62, -18.62, -22.26, -25.01, -15.07, -16.70, -22.15, -19.13, -23.56, -13.99, -23.92, -25.03, -24.83, -21.12, -18.06, 0.000, 0.000, 0.000, 03:59:44.917
105, -20.56, -26.55, -18.84, -21.93, -24.86, -15.07, -16.81, -21.75, -19.13, -23.56, -13.99, -23.92, -25.03, -24.83, -21.12, -18.06, 0.024, 0.942, 0.288, 03:59:44.921
106, -20.56, -26.55, -18.84, -21.93, -24.86, -15.07, -16.81, -21.75, -18.64, -23.51, -14.01, -24.01, -25.26, -24.88, -21.14, -18.19, 0.000, 0.000, 0.000, 03:59:44.925
107, -20.65, -26.49, -18.55, -21.90, -24.81, -14.98, -16.72, -21.97, -18.64, -23.51, -14.01, -24.01, -25.26, -24.88, -21.14, -18.19, 0.000, 0.000, 0.000, 03:59:44.928
108, -20.65, -26.49, -18.55, -21.90, -24.81, -14.98, -16.72, -21.97, -18.89, -23.36, -13.88, -24.07, -25.44, -24.70, -21.08, -18.15, 0.000, 0.000, 0.000, 03:59:44.932
109, -20.59, -26.51, -18.42, -21.93, -25.17, -14.77, -16.92, -22.15, -18.89, -23.36, -13.88, -24.07, -25.44, -24.70, -21.08, -18.15, 0.000, 0.000, 0.000, 03:59:44.936
110, -20.59, -26.51, -18.42, -21.93, -25.17, -14.77, -16.92, -22.15, -18.91, -23.40, -13.88, -23.98, -25.41, -24.81, -21.21, -17.93, 0.000, 0.000, 0.000, 03:59:44.940
111, -20.50, -26.49, -18.62, -22.13, -24.88, -14.86, -16.63, -22.22, -18.91, -23.40, -13.88, -23.98, -25.41, -24.81, -21.21, -17.93, 0.000, 0.000, 0.000, 03:59:44.946
112, -20.50, -26.49, -18.62, -22.13, -24.88, -14.86, -16.63, -22.22, -18.82, -23.47, -14.08, -23.94, -25.48, -24.86, -21.21, -17.79, 0.000, 0.000, 0.000, 03:59:44.949
113, -20.54, -26.67, -18.69, -22.17, -25.01, -14.91, -16.90, -22.28, -18.82, -23.47, -14.08, -23.94, -25.48, -24.86, -21.21, -17.79, 0.000, 0.000, 0.000, 03:59:44.953
114, -20.54, -26.67, -18.69, -22.17, -25.01, -14.91, -16.90, -22.28, -18.98, -23.36, -13.97, -23.85, -25.32, -24.74, -21.26, -17.79, 0.000, 0.000, 0.000, 03:59:44.956
115, -20.72, -26.60, -18.55, -22.15, -24.92, -15.04, -16.74, -22.11, -18.98, -23.36, -13.97, -23.85, -25.32, -24.74, -21.26, -17.79, 0.014, 0.956, 0.312, 03:59:44.960
116, -20.72, -26.60, -18.55, -22.15, -24.92, -15.04, -16.74, -22.11, -18.82, -23.45, -13.90, -23.98, -25.37, -24.86, -21.28, -17.90, 0.000, 0.000, 0.000, 03:59:44.965
117, -20.90, -26.46, -18.48, -22.26, -25.08, -15.09, -16.63, -22.13, -18.82, -23.45, -13.90, -23.98, -25.37, -24.86, -21.28, -17.90, 0.000, 0.000, 0.000, 03:59:44.971
118, -20.90, -26.46, -18.48, -22.26, -25.08, -15.09, -16.63, -22.13, -19.09, -23.60, -13.77, -24.05, -25.55, -24.79, -20.99, -18.17, 0.000, 0.000, 0.000, 03:59:44.973
119, -20.81, -26.46, -18.48, -22.08, -24.88, -15.11, -16.76, -21.99, -19.09, -23.60, -13.77, -24.05, -25.55, -24.79, -20.99, -18.17, 0.000, 0.000, 0.000, 03:59:44.978
120, -20.81, -26.46, -18.48, -22.08, -24.88, -15.11, -16.76, -21.99, -18.91, -23.83, -13.84, -24.12, -25.30, -24.90, -21.08, -17.97, 0.000, 0.000, 0.000, 03:59:44.983
121, -20.70, -26.44, -18.40, -22.26, -24.97, -14.95, -16.79, -22.15, -18.91, -23.83, -13.84, -24.12, -25.30, -24.90, -21.08, -17.97, 0.000, 0.000, 0.000, 03:59:44.985
122, -20.70, -26.44, -18.40, -22.26, -24.97, -14.95, -16.79, -22.15, -18.93, -23.40, -13.99, -23.96, -25.21, -24.90, -21.06, -18.19, 0.000, 0.000, 0.000, 03:59:44.989
123, -20.76, -26.46, -18.53, -22.26, -25.06, -14.95, -16.74, -22.22, -18.93, -23.40, -13.99, -23.96, -25.21, -24.90, -21.06, -18.19, 0.000, 0.000, 0.000, 03:59:44.992
124, -20.76, -26.46, -18.53, -22.26, -25.06, -14.95, -16.74, -22.22, -18.82, -23.38, -13.93, -23.89, -25.30, -24.86, -21.12, -17.93, 0.000, 0.000, 0.000, 03:59:44.996
125, -20.79, -26.62, -18.53, -22.04, -24.79, -14.93, -16.63, -22.13, -18.82, -23.38, -13.93, -23.89, -25.30, -24.86, -21.12, -17.93, 0.006, 0.954, 0.290, 03:59:45.002
126, -20.79, -26.62, -18.53, -22.04, -24.79, -14.93, -16.63, -22.13, -19.04, -23.51, -13.97, -23.94, -25.55, -24.88, -21.17, -17.72, 0.000, 0.000, 0.000, 03:59:45.005
127, -20.90, -26.44, -18.44, -22.24, -25.15, -14.98, -16.79, -22.15, -19.04, -23.51, -13.97, -23.94, -25.55, -24.88, -21.17, -17.72, 0.000, 0.000, 0.000, 03:59:45.008
128, -20.90, -26.44, -18.44, -22.24, -25.15, -14.98, -16.79, -22.15, -19.02, -23.78, -13.90, -24.01, -25.19, -24.56, -21.30, -17.90, 0.000, 0.000, 0.000, 03:59:45.013
129, -20.68, -26.44, -18.62, -22.11, -25.12, -15.00, -16.50, -22.15, -19.02, -23.78, -13.90, -24.01, -25.19, -24.56, -21.30, -17.90, 0.000, 0.000, 0.000, 03:59:45.016
130, -20.68, -26.44, -18.62, -22.11, -25.12, -15.00, -16.50, -22.15, -18.91, -23.54, -13.84, -24.05, -25.53, -24.77, -21.12, -18.19, 0.000, 0.000, 0.000, 03:59:45.021
131, -20.83, -26.71, -18.60, -22.15, -24.83, -15.07, -16.63, -22.08, -18.91, -23.54, -13.84, -24.05, -25.53, -24.77, -21.12, -18.19, 0.000, 0.000, 0.000, 03:59:45.024
132, -20.83, -26.71, -18.60, -22.15, -24.83, -15.07, -16.63, -22.08, -18.89, -23.60, -13.86, -24.05, -25.39, -24.97, -21.12, -18.02, 0.000, 0.000, 0.000, 03:59:45.029
133, -20.72, -26.55, -18.69, -22.24, -24.94, -15.22, -16.83, -22.24, -18.89, -23.60, -13.86, -24.05, -25.39, -24.97, -21.12, -18.02, 0.000, 0.000, 0.000, 03:59:45.034
134, -20.72, -26.55, -18.69, -22.24, -24.94, -15.22, -16.83, -22.24, -18.98, -23.51, -13.90, -24.34, -25.46, -24.74, -21.17, -17.93, 0.008, 0.964, 0.282, 03:59:45.037
135, -20.81, -26.53, -18.28, -22.24, -24.74, -15.13, -16.76, -21.93, -18.98, -23.51, -13.90, -24.34, -25.46, -24.74, -21.17, -17.93, 0.000, 0.000, 0.000, 03:59:45.041
136, -20.81, -26.53, -18.28, -22.24, -24.74, -15.13, -16.76, -21.93, -18.82, -23.47, -13.95, -24.03, -25.32, -24.94, -21.03, -18.02, 0.000, 0.000, 0.000, 03:59:45.046
137, -20.81, -26.51, -18.48, -22.24, -24.94, -15.04, -16.79, -22.08, -18.82, -23.47, -13.95, -24.03, -25.32, -24.94, -21.03, -18.02, 0.000, 0.000, 0.000, 03:59:45.048
138, -20.81, -26.51, -18.48, -22.24, -24.94, -15.04, -16.79, -22.08, -18.78, -23.34, -14.04, -24.01, -25.24, -24.81, -21.17, -18.17, 0.000, 0.000, 0.000, 03:59:45.053
139, -20.54, -26.78, -18.48, -22.02, -24.92, -14.82, -16.67, -21.97, -18.78, -23.34, -14.04, -24.01, -25.24, -24.81, -21.17, -18.17, 0.000, 0.000, 0.000, 03:59:45.056
140, -20.54, -26.78, -18.48, -22.02, -24.92, -14.82, -16.67, -21.97, -18.86, -23.65, -13.90, -24.05, -25.44, -24.88, -21.08, -18.08, 0.000, 0.000, 0.000, 03:59:45.061
141, -20.76, -26.58, -18.44, -22.15, -24.97, -15.09, -16.58, -21.97, -18.86, -23.65, -13.90, -24.05, -25.44, -24.88, -21.08, -18.08, 0.000, 0.000, 0.000, 03:59:45.064
142, -20.76, -26.58, -18.44, -22.15, -24.97, -15.09, -16.58, -21.97, -18.98, -23.09, -13.75, -23.94, -25.21, -24.81, -21.21, -18.10, 0.000, 0.000, 0.000, 03:59:45.068
143, -20.79, -26.55, -18.64, -21.90, -25.03, -14.98, -16.67, -22.17, -18.98, -23.09, -13.75, -23.94, -25.21, -24.81, -21.21, -18.10, 0.000, 0.000, 0.000, 03:59:45.074
144, -20.79, -26.55, -18.64, -21.90, -25.03, -14.98, -16.67, -22.17, -18.73, -23.40, -14.06, -24.12, -25.32, -24.65, -21.23, -18.08, 0.012, 0.940, 0.284, 03:59:45.076
145, -20.76, -26.33, -18.51, -22.04, -25.12, -14.84, -16.79, -22.15, -18.73, -23.40, -14.06, -24.12, -25.32, -24.65, -21.23, -18.08, 0.000, 0.000, 0.000, 03:59:45.081
146, -20.76, -26.33, -18.51, -22.04, -25.12, -14.84, -16.79, -22.15, -18.78, -23.38, -13.88, -23.98, -25.55, -24.83, -21.08, -17.99, 0.000, 0.000, 0.000, 03:59:45.084
147, -20.81, -26.58, -18.35, -22.15, -25.17, -14.91, -16.61, -22.22, -18.78, -23.38, -13.88, -23.98, -25.55, -24.83, -21.08, -17.99, 0.000, 0.000, 0.000, 03:59:45.089
148, -20.81, -26.58, -18.35, -22.15, -25.17, -14.91, -16.61, -22.22, -18.95, -23.36, -14.08, -23.94, -25.41, -24.70, -20.99, -17.93, 0.000, 0.000, 0.000, 03:59:45.092
149, -20.90, -26.58, -18.51, -22.22, -24.99, -14.93, -16.50, -22.04, -18.95, -23.36, -14.08, -23.94, -25.41, -24.70, -20.99, -17.93, 0.000, 0.000, 0.000, 03:59:45.097
150, -20.90, -26.58, -18.51, -22.22, -24.99, -14.93, -16.50, -22.04, -18.84, -23.40, -13.86, -24.03, -25.28, -24.86, -21.19, -18.08, 0.000, 0.000, 0.000, 03:59:45.101
151, -20.68, -26.71, -18.71, -22.20, -25.03, -14.95, -16.70, -22.26, -18.84, -23.40, -13.86, -24.03, -25.28, -24.86, -21.19, -18.08, 0.000, 0.000, 0.000, 03:59:45.103
152, -20.68, -26.71, -18.71, -22.20, -25.03, -14.95, -16.70, -22.26, -18.84, -23.20, -13.93, -23.94, -25.57, -25.03, -21.12, -17.93, 0.000, 0.000, 0.000, 03:59:45.108
153, -20.65, -26.58, -18.48, -22.26, -24.88, -14.80, -16.74, -21.86, -18.84, -23.20, -13.93, -23.94, -25.57, -25.03, -21.12, -17.93, 0.000, 0.000, 0.000, 03:59:45.113
154, -20.65, -26.58, -18.48, -22.26, -24.88, -14.80, -16.74, -21.86, -18.71, -23.45, -14.13, -23.96, -25.35, -25.01, -21.19, -17.95, 0.008, 0.938, 0.274, 03:59:45.118
155, -20.76, -26.64, -18.48, -22.08, -25.08, -14.91, -16.72, -22.35, -18.71, -23.45, -14.13, -23.96, -25.35, -25.01, -21.19, -17.95, 0.000, 0.000, 0.000, 03:59:45.122
156, -20.76, -26.64, -18.48, -22.08, -25.08, -14.91, -16.72, -22.35, -18.71, -23.31, -13.93, -24.01, -25.44, -24.56, -21.12, -17.95, 0.000, 0.000, 0.000, 03:59:45.126
157, -20.61, -26.55, -18.55, -22.15, -25.12, -14.73, -16.96, -22.20, -18.71, -23.31, -13.93, -24.01, -25.44, -24.56, -21.12, -17.95, 0.000, 0.000, 0.000, 03:59:45.130
158, -20.61, -26.55, -18.55, -22.15, -25.12, -14.73, -16.96, -22.20, -19.18, -23.47, -13.81, -24.16, -25.39, -24.61, -21.03, -18.02, 0.000, 0.000, 0.000, 03:59:45.133
159, -20.88, -26.69, -18.46, -22.04, -25.03, -14.75, -16.90, -22.17, -19.18, -23.47, -13.81, -24.16, -25.39, -24.61, -21.03, -18.02, 0.000, 0.000, 0.000, 03:59:45.137
160, -20.88, -26.69, -18.46, -22.04, -25.03, -14.75, -16.90, -22.17, -18.86, -23.42, -13.95, -24.07, -25.17, -24.90, -21.14, -18.04, 0.000, 0.000, 0.000, 03:59:45.140
161, -20.76, -26.71, -18.57, -21.99, -24.88, -14.93, -16.79, -22.15, -18.86, -23.42, -13.95, -24.07, -25.17, -24.90, -21.14, -18.04, 0.000, 0.000, 0.000, 03:59:45.145
162, -20.76, -26.71, -18.57, -21.99, -24.88, -14.93, -16.79, -22.15, -18.86, -23.22, -13.99, -23.98, -25.35, -24.83, -21.06, -17.90, 0.000, 0.000, 0.000, 03:59:45.148
163, -20.70, -26.64, -18.24, -22.31, -24.90, -14.89, -16.65, -22.33, -18.86, -23.22, -13.99, -23.98, -25.35, -24.83, -21.06, -17.90, 0.000, 0.000, 0.000, 03:59:45.153
164, -20.70, -26.64, -18.24, -22.31, -24.90, -14.89, -16.65, -22.33, -18.98, -23.60, -13.79, -24.14, -25.35, -24.99, -21.10, -18.08, 0.006, 0.944, 0.278, 03:59:45.156
165, -20.63, -26.58, -18.55, -22.06, -25.03, -14.93, -16.70, -22.15, -18.98, -23.60, -13.79, -24.14, -25.35, -24.99, -21.10, -18.08, 0.000, 0.000, 0.000, 03:59:45.160
166, -20.63, -26.58, -18.55, -22.06, -25.03, -14.93, -16.70, -22.15, -18.98, -23.65, -13.84, -23.92, -25.48, -24.72, -21.19, -17.86, 0.000, 0.000, 0.000, 03:59:45.164
167, -20.59, -26.49, -18.48, -22.15, -25.03, -14.89, -16.92, -22.28, -18.98, -23.65, -13.84, -23.92, -25.48, -24.72, -21.19, -17.86, 0.000, 0.000, 0.000, 03:59:45.168
168, -20.59, -26.49, -18.48, -22.15, -25.03, -14.89, -16.92, -22.28, -18.82, -23.49, -13.99, -23.96, -25.19, -24.79, -21.19, -17.93, 0.000, 0.000, 0.000, 03:59:45.173
169, -20.79, -26.60, -18.69, -21.95, -25.08, -14.91, -16.67, -22.22, -18.82, -23.49, -13.99, -23.96, -25.19, -24.79, -21.19, -17.93, 0.000, 0.000, 0.000, 03:59:45.177
170, -20.79, -26.60, -18.69, -21.95, -25.08, -14.91, -16.67, -22.22, -19.00, -23.38, -13.84, -24.05, -25.12, -24.59, -21.19, -17.93, 0.000, 0.000, 0.000, 03:59:45.180
171, -20.70, -26.69, -18.53, -21.95, -25.17, -14.89, -16.54, -22.24, -19.00, -23.38, -13.84, -24.05, -25.12, -24.59, -21.19, -17.93, 0.000, 0.000, 0.000, 03:59:45.185
172, -20.70, -26.69, -18.53, -21.95, -25.17, -14.89, -16.54, -22.24, -18.98, -23.31, -13.84, -24.12, -25.30, -24.97, -21.19, -18.19, 0.000, 0.000, 0.000, 03:59:45.190
173, -20.88, -26.60, -18.40, -22.15, -24.94, -14.80, -16.74, -22.08, -18.98, -23.31, -13.84, -24.12, -25.30, -24.97, -21.19, -18.19, 0.000, 0.000, 0.000, 03:59:45.193
174, -20.88, -26.60, -18.40, -22.15, -24.94, -14.80, -16.74, -22.08, -18.91, -23.31, -13.84, -23.98, -25.21, -24.92, -21.08, -18.10, 0.004, 0.940, 0.280, 03:59:45.198
175, -20.70, -26.55, -18.64, -21.90, -25.03, -14.91, -16.74, -22.22, -18.91, -23.31, -13.84, -23.98, -25.21, -24.92, -21.08, -18.10, 0.000, 0.000, 0.000, 03:59:45.200
176, -20.70, -26.55, -18.64, -21.90, -25.03, -14.91, -16.74, -22.22, -18.95, -23.40, -13.75, -23.74, -25.30, -24.86, -21.17, -18.08, 0.000, 0.000, 0.000, 03:59:45.205
177, -20.56, -26.64, -18.71, -21.93, -24.79, -15.07, -16.67, -22.08, -18.95, -23.40, -13.75, -23.74, -25.30, -24.86, -21.17, -18.08, 0.000, 0.000, 0.000, 03:59:45.208
178, -20.56, -26.64, -18.71, -21.93, -24.79, -15.07, -16.67, -22.08, -18.86, -23.45, -13.99, -24.07, -25.64, -24.70, -21.08, -18.17, 0.000, 0.000, 0.000, 03:59:45.211
179, -20.59, -26.71, -18.51, -22.11, -24.92, -14.89, -16.74, -22.17, -18.86, -23.45, -13.99, -24.07, -25.64, -24.70, -21.08, -18.17, 0.000, 0.000, 0.000, 03:59:45.216
180, -20.59, -26.71, -18.51, -22.11, -24.92, -14.89, -16.74, -22.17, -19.02, -23.51, -13.97, -23.96, -25.57, -24.72, -21.30, -18.19, 0.000, 0.000, 0.000, 03:59:45.219
181, -20.70, -26.76, -18.51, -21.99, -24.77, -14.91, -16.74, -21.93, -19.02, -23.51, -13.97, -23.96, -25.57, -24.72, -21.30, -18.19, 0.000, 0.000, 0.000, 03:59:45.224
182, -20.70, -26.76, -18.51, -21.99, -24.77, -14.91, -16.74, -21.93, -19.00, -23.60, -13.93, -23.92, -25.48, -24.83, -21.32, -18.13, 0.000, 0.000, 0.000, 03:59:45.229
183, -20.85, -26.33, -18.64, -22.13, -25.01, -14.82, -16.92, -21.79, -19.00, -23.60, -13.93, -23.92, -25.48, -24.83, -21.32, -18.13, 0.000, 0.000, 0.000, 03:59:45.232
184, -20.85, -26.33, -18.64, -22.13, -25.01, -14.82, -16.92, -21.79, -19.00, -23.45, -13.84, -23.94, -25.26, -24.74, -20.94, -18.06, 0.010, 0.948, 0.280, 03:59:45.236
185, -20.88, -26.55, -18.51, -22.04, -25.08, -14.86, -17.01, -22.11, -19.00, -23.45, -13.84, -23.94, -25.26, -24.74, -20.94, -18.06, 0.000, 0.000, 0.000, 03:59:45.240
186, -20.88, -26.55, -18.51, -22.04, -25.08, -14.86, -17.01, -22.11, -18.98, -23.51, -14.01, -23.96, -25.35, -24.88, -21.08, -18.33, 0.000, 0.000, 0.000, 03:59:45.244
187, -20.74, -26.38, -18.44, -22.04, -24.88, -14.75, -16.88, -21.99, -18.98, -23.51, -14.01, -23.96, -25.35, -24.88, -21.08, -18.33, 0.000, 0.000, 0.000, 03:59:45.248
188, -20.74, -26.38, -18.44, -22.04, -24.88, -14.75, -16.88, -21.99, -18.91, -23.29, -13.81, -23.94, -25.19, -24.79, -21.46, -18.04, 0.000, 0.000, 0.000, 03:59:45.253
189, -20.59, -26.55, -18.55, -22.08, -24.97, -14.84, -16.63, -22.13, -18.91, -23.29, -13.81, -23.94, -25.19, -24.79, -21.46, -18.04, 0.000, 0.000, 0.000, 03:59:45.256
190, -20.59, -26.55, -18.55, -22.08, -24.97, -14.84, -16.63, -22.13, -18.82, -23.45, -13.88, -24.10, -25.32, -24.68, -21.03, -17.95, 0.000, 0.000, 0.000, 03:59:45.263
191, -20.54, -26.64, -18.53, -21.97, -24.90, -15.27, -16.67, -21.93, -18.82, -23.45, -13.88, -24.10, -25.32, -24.68, -21.03, -17.95, 0.000, 0.000, 0.000, 03:59:45.266
192, -20.54, -26.64, -18.53, -21.97, -24.90, -15.27, -16.67, -21.93, -18.98, -23.54, -13.88, -23.98, -25.17, -24.83, -21.19, -17.88, 0.000, 0.000, 0.000, 03:59:45.268
193, -20.83, -26.64, -18.55, -22.04, -25.03, -14.84, -16.83, -21.99, -18.98, -23.54, -13.88, -23.98, -25.17, -24.83, -21.19, -17.88, 0.014, 0.932, 0.292, 03:59:45.274
194, -20.83, -26.64, -18.55, -22.04, -25.03, -14.84, -16.83, -21.99, -18.73, -23.27, -13.97, -23.96, -25.28, -24.59, -21.14, -17.95, 0.000, 0.000, 0.000, 03:59:45.277
195, -20.65, -26.67, -18.66, -21.99, -25.28, -14.91, -16.70, -21.88, -18.73, -23.27, -13.97, -23.96, -25.28, -24.59, -21.14, -17.95, 0.000, 0.000, 0.000, 03:59:45.281
196, -20.65, -26.67, -18.66, -21.99, -25.28, -14.91, -16.70, -21.88, -19.00, -23.40, -13.90, -23.98, -25.44, -24.86, -21.26, -18.24, 0.000, 0.000, 0.000, 03:59:45.286
197, -20.52, -26.60, -18.46, -21.86, -25.19, -14.93, -16.76, -22.22, -19.00, -23.40, -13.90, -23.98, -25.44, -24.86, -21.26, -18.24, 0.000, 0.000, 0.000, 03:59:45.290
198, -20.52, -26.60, -18.46, -21.86, -25.19, -14.93, -16.76, -22.22, -18.84, -23.38, -13.90, -23.76, -25.32, -24.92, -21.30, -18.06, 0.000, 0.000, 0.000, 03:59:45.292
199, -20.70, -26.42, -18.55, -22.17, -25.06, -15.15, -16.76, -22.06, -18.84, -23.38, -13.90, -23.76, -25.32, -24.92, -21.30, -18.06, 0.000, 0.000, 0.000, 03:59:45.296
200, -20.70, -26.42, -18.55, -22.17, -25.06, -15.15, -16.76, -22.06, -18.98, -23.51, -13.79, -23.98, -25.41, -24.65, -21.21, -18.10, 0.000, 0.000, 0.000, 03:59:45.299
201, -20.52, -26.29, -18.64, -22.08, -25.12, -15.15, -16.81, -22.11, -18.98, -23.51, -13.79, -23.98, -25.41, -24.65, -21.21, -18.10, 0.000, 0.000, 0.000, 03:59:45.304
202, -20.52, -26.29, -18.64, -22.08, -25.12, -15.15, -16.81, -22.11, -18.86, -23.34, -13.70, -24.07, -25.41, -24.65, -21.35, -18.02, 0.000, 0.000, 0.000, 03:59:45.308
203, -20.59, -26.62, -18.57, -22.04, -25.26, -14.91, -16.63, -21.97, -18.86, -23.34, -13.70, -24.07, -25.41, -24.65, -21.35, -18.02, 0.022, 0.958, 0.290, 03:59:45.312
204, -20.59, -26.62, -18.57, -22.04, -25.26, -14.91, -16.63, -21.97, -18.78, -23.34, -13.93, -23.89, -25.32, -24.68, -21.08, -18.13, 0.000, 0.000, 0.000, 03:59:45.316
205, -20.76, -26.69, -18.48, -21.97, -24.99, -14.82, -16.67, -22.02, -18.78, -23.34, -13.93, -23.89, -25.32, -24.68, -21.08, -18.13, 0.000, 0.000, 0.000, 03:59:45.320
206, -20.76, -26.69, -18.48, -21.97, -24.99, -14.82, -16.67, -22.02, -19.04, -23.49, -13.81, -24.05, -25.50, -25.01, -21.08, -18.04, 0.000, 0.000, 0.000, 03:59:45.324
207, -20.83, -26.69, -18.44, -22.04, -25.10, -14.75, -16.81, -21.97, -19.04, -23.49, -13.81, -24.05, -25.50, -25.01, -21.08, -18.04, 0.000, 0.000, 0.000, 03:59:45.328
208, -20.83, -26.69, -18.44, -22.04, -25.10, -14.75, -16.81, -21.97, -19.02, -23.49, -13.86, -23.96, -25.32, -25.01, -21.19, -18.04, 0.000, 0.000, 0.000, 03:59:45.332
209, -20.72, -26.76, -18.51, -22.02, -25.01, -14.71, -16.79, -22.13, -19.02, -23.49, -13.86, -23.96, -25.32, -25.01, -21.19, -18.04, 0.000, 0.000, 0.000, 03:59:45.335
210, -20.72, -26.76, -18.51, -22.02, -25.01, -14.71, -16.79, -22.13, -18.98, -23.51, -13.77, -23.94, -25.28, -24.94, -21.21, -17.84, 0.000, 0.000, 0.000, 03:59:45.341
211, -20.81, -26.73, -18.55, -21.99, -25.03, -14.77, -16.58, -21.84, -18.98, -23.51, -13.77, -23.94, -25.28, -24.94, -21.21, -17.84, 0.000, 0.000, 0.000, 03:59:45.344
212, -20.81, -26.73, -18.55, -21.99, -25.03, -14.77, -16.58, -21.84, -18.93, -23.54, -13.79, -23.85, -25.35, -24.88, -21.19, -17.93, 0.000, 0.000, 0.000, 03:59:45.348
213, -20.70, -26.67, -18.48, -22.02, -24.81, -14.89, -16.67, -22.11, -18.93, -23.54, -13.79, -23.85, -25.35, -24.88, -21.19, -17.93, 0.006, 0.882, 0.302, 03:59:45.352
214, -20.70, -26.67, -18.48, -22.02, -24.81, -14.89, -16.67, -22.11, -18.84, -23.36, -13.88, -23.74, -25.30, -24.88, -21.37, -17.97, 0.000, 0.000, 0.000, 03:59:45.355
215, -20.63, -26.64, -18.48, -21.95, -24.97, -14.84, -16.65, -22.20, -18.84, -23.36, -13.88, -23.74, -25.30, -24.88, -21.37, -17.97, 0.000, 0.000, 0.000, 03:59:45.360
216, -20.63, -26.64, -18.48, -21.95, -24.97, -14.84, -16.65, -22.20, -18.95, -23.27, -13.97, -24.01, -25.30, -24.83, -21.08, -18.06, 0.000, 0.000, 0.000, 03:59:45.364
217, -20.54, -26.80, -18.64, -22.02, -24.97, -14.93, -16.72, -21.93, -18.95, -23.27, -13.97, -24.01, -25.30, -24.83, -21.08, -18.06, 0.000, 0.000, 0.000, 03:59:45.368
218, -20.54, -26.80, -18.64, -22.02, -24.97, -14.93, -16.72, -21.93, -18.93, -23.18, -13.99, -24.32, -25.21, -24.88, -20.90, -18.04, 0.000, 0.000, 0.000, 03:59:45.371
219, -20.59, -26.53, -18.33, -22.28, -25.06, -15.04, -16.65, -22.02, -18.93, -23.18, -13.99, -24.32, -25.21, -24.88, -20.90, -18.04, 0.000, 0.000, 0.000, 03:59:45.376
220, -20.59, -26.53, -18.33, -22.28, -25.06, -15.04, -16.65, -22.02, -18.89, -23.31, -13.86, -24.14, -25.26, -24.56, -21.14, -17.99, 0.000, 0.000, 0.000, 03:59:45.380
221, -20.63, -26.49, -18.42, -22.26, -24.92, -14.93, -16.70, -22.08, -18.89, -23.31, -13.86, -24.14, -25.26, -24.56, -21.14, -17.99, 0.000, 0.000, 0.000, 03:59:45.383
222, -20.63, -26.49, -18.42, -22.26, -24.92, -14.93, -16.70, -22.08, -18.78, -23.47, -13.72, -24.01, -25.48, -24.68, -21.01, -18.04, 0.000, 0.000, 0.000, 03:59:45.388
223, -20.76, -26.53, -18.53, -22.02, -24.74, -14.91, -16.74, -22.22, -18.78, -23.47, -13.72, -24.01, -25.48, -24.68, -21.01, -18.04, 0.002, 0.882, 0.262, 03:59:45.392
224, -20.76, -26.53, -18.53, -22.02, -24.74, -14.91, -16.74, -22.22, -18.93, -23.27, -14.06, -24.21, -25.50, -24.68, -21.14, -18.15, 0.000, 0.000, 0.000, 03:59:45.396
225, -20.50, -26.55, -18.33, -21.97, -25.12, -14.75, -16.63, -22.15, -18.93, -23.27, -14.06, -24.21, -25.50, -24.68, -21.14, -18.15, 0.000, 0.000, 0.000, 03:59:45.399
226, -20.50, -26.55, -18.33, -21.97, -25.12, -14.75, -16.63, -22.15, -18.82, -23.29, -13.77, -24.14, -25.30, -24.59, -21.23, -18.06, 0.000, 0.000, 0.000, 03:59:45.403
227, -20.61, -26.62, -18.46, -22.13, -25.10, -14.73, -16.79, -22.11, -18.82, -23.29, -13.77, -24.14, -25.30, -24.59, -21.23, -18.06, 0.000, 0.000, 0.000, 03:59:45.408
228, -20.61, -26.62, -18.46, -22.13, -25.10, -14.73, -16.79, -22.11, -18.98, -23.45, -13.81, -23.98, -25.41, -24.77, -21.12, -18.04, 0.000, 0.000, 0.000, 03:59:45.412
229, -20.79, -26.44, -18.55, -22.22, -24.99, -14.80, -16.85, -21.97, -18.98, -23.45, -13.81, -23.98, -25.41, -24.77, -21.12, -18.04, 0.000, 0.000, 0.000, 03:59:45.416
230, -20.79, -26.44, -18.55, -22.22, -24.99, -14.80, -16.85, -21.97, -18.98, -23.29, -13.93, -24.01, -25.39, -24.68, -21.08, -18.17, 0.000, 0.000, 0.000, 03:59:45.420
231, -20.68, -26.55, -18.44, -22.08, -25.06, -14.89, -16.76, -22.17, -18.98, -23.29, -13.93, -24.01, -25.39, -24.68, -21.08, -18.17, 0.000, 0.000, 0.000, 03:59:45.424
232, -20.68, -26.55, -18.44, -22.08, -25.06, -14.89, -16.76, -22.17, -18.86, -23.45, -13.81, -23.87, -25.26, -24.86, -21.17, -18.02, 0.000, 0.000, 0.000, 03:59:45.429
233, -20.54, -26.42, -18.46, -21.97, -24.90, -15.02, -16.83, -22.06, -18.86, -23.45, -13.81, -23.87, -25.26, -24.86, -21.17, -18.02, 0.006, 0.874, 0.262, 03:59:45.433
234, -20.54, -26.42, -18.46, -21.97, -24.90, -15.02, -16.83, -22.06, -18.84, -23.45, -13.97, -23.98, -25.26, -24.97, -21.32, -18.06, 0.000, 0.000, 0.000, 03:59:45.437
235, -20.68, -26.40, -18.48, -21.88, -24.97, -15.00, -16.67, -22.02, -18.84, -23.45, -13.97, -23.98, -25.26, -24.97, -21.32, -18.06, 0.000, 0.000, 0.000, 03:59:45.441
236, -20.68, -26.40, -18.48, -21.88, -24.97, -15.00, -16.67, -22.02, -18.80, -23.60, -14.13, -23.80, -25.28, -24.86, -21.08, -18.15, 0.000, 0.000, 0.000, 03:59:45.446
237, -20.65, -26.67, -18.44, -22.02, -25.19, -14.89, -16.72, -21.97, -18.80, -23.60, -14.13, -23.80, -25.28, -24.86, -21.08, -18.15, 0.000, 0.000, 0.000, 03:59:45.449
238, -20.65, -26.67, -18.44, -22.02, -25.19, -14.89, -16.72, -21.97, -19.02, -23.18, -13.97, -23.87, -25.53, -24.81, -21.19, -18.08, 0.000, 0.000, 0.000, 03:59:45.453
239, -20.83, -26.55, -18.60, -22.02, -25.08, -14.98, -16.61, -22.13, -19.02, -23.18, -13.97, -23.87, -25.53, -24.81, -21.19, -18.08, 0.000, 0.000, 0.000, 03:59:45.455
240, -20.83, -26.55, -18.60, -22.02, -25.08, -14.98, -16.61, -22.13, -18.86, -23.40, -13.93, -23.87, -25.37, -24.92, -21.03, -18.04, 0.000, 0.000, 0.000, 03:59:45.458
241, -20.54, -26.60, -18.62, -22.02, -24.94, -14.80, -16.85, -21.93, -18.86, -23.40, -13.93, -23.87, -25.37, -24.92, -21.03, -18.04, 0.000, 0.000, 0.000, 03:59:45.464
242, -20.54, -26.60, -18.62, -22.02, -24.94, -14.80, -16.85, -21.93, -19.13, -23.31, -13.95, -23.83, -25.46, -24.79, -21.14, -18.06, 0.000, 0.000, 0.000, 03:59:45.468
243, -20.65, -26.49, -18.57, -21.97, -24.97, -14.80, -16.74, -21.97, -19.13, -23.31, -13.95, -23.83, -25.46, -24.79, -21.14, -18.06, 0.010, 0.906, 0.284, 03:59:45.472
244, -20.65, -26.49, -18.57, -21.97, -24.97, -14.80, -16.74, -21.97, -18.80, -23.56, -14.01, -24.05, -25.26, -24.72, -21.21, -17.95, 0.000, 0.000, 0.000, 03:59:45.475
245, -20.70, -26.49, -18.55, -21.97, -24.92, -14.98, -16.83, -22.40, -18.80, -23.56, -14.01, -24.05, -25.26, -24.72, -21.21, -17.95, 0.000, 0.000, 0.000, 03:59:45.480
246, -20.70, -26.49, -18.55, -21.97, -24.92, -14.98, -16.83, -22.40, -18.80, -23.58, -13.90, -24.12, -25.50, -24.99, -21.06, -18.04, 0.000, 0.000, 0.000, 03:59:45.483
247, -20.83, -26.42, -18.40, -21.93, -25.15, -14.93, -16.83, -22.17, -18.80, -23.58, -13.90, -24.12, -25.50, -24.99, -21.06, -18.04, 0.000, 0.000, 0.000, 03:59:45.487
248, -20.83, -26.42, -18.40, -21.93, -25.15, -14.93, -16.83, -22.17, -18.78, -23.25, -13.88, -23.80, -25.46, -24.99, -21.12, -18.17, 0.000, 0.000, 0.000, 03:59:45.492
249, -20.83, -26.60, -18.37, -22.04, -24.88, -14.93, -16.79, -22.06, -18.78, -23.25, -13.88, -23.80, -25.46, -24.99, -21.12, -18.17, 0.000, 0.000, 0.000, 03:59:45.496
250, -20.83, -26.60, -18.37, -22.04, -24.88, -14.93, -16.79, -22.06, -18.89, -23.45, -13.86, -23.89, -25.39, -24.79, -21.30, -18.04, 0.000, 0.000, 0.000, 03:59:45.500
251, -20.61, -26.80, -18.48, -22.17, -24.86, -14.91, -16.63, -22.02, -18.89, -23.45, -13.86, -23.89, -25.39, -24.79, -21.30, -18.04, 0.000, 0.000, 0.000, 03:59:45.504
252, -20.61, -26.80, -18.48, -22.17, -24.86, -14.91, -16.63, -22.02, -18.80, -23.60, -14.01, -24.07, -25.35, -25.12, -21.06, -17.93, 0.024, 0.984, 0.298, 03:59:45.508
253, -20.63, -26.46, -18.53, -22.17, -25.01, -15.02, -16.65, -21.99, -18.80, -23.60, -14.01, -24.07, -25.35, -25.12, -21.06, -17.93, 0.000, 0.000, 0.000, 03:59:45.513
254, -20.63, -26.46, -18.53, -22.17, -25.01, -15.02, -16.65, -21.99, -18.93, -23.40, -13.88, -24.14, -25.46, -24.88, -21.32, -17.95, 0.000, 0.000, 0.000, 03:59:45.518
255, -20.88, -26.51, -18.48, -21.84, -24.92, -15.00, -16.81, -22.08, -18.93, -23.40, -13.88, -24.14, -25.46, -24.88, -21.32, -17.95, 0.000, 0.000, 0.000, 03:59:45.521
0, -20.88, -26.51, -18.48, -21.84, -24.92, -15.00, -16.81, -22.08, -18.82, -23.47, -13.86, -24.07, -25.28, -24.88, -21.26, -18.08, 0.000, 0.000, 0.000, 03:59:45.526
1, -20.79, -26.71, -18.73, -22.22, -25.10, -14.93, -16.79, -22.04, -18.82, -23.47, -13.86, -24.07, -25.28, -24.88, -21.26, -18.08, 0.000, 0.000, 0.000, 03:59:45.529
2, -20.79, -26.71, -18.73, -22.22, -25.10, -14.93, -16.79, -22.04, -19.00, -23.58, -14.17, -23.96, -25.37, -24.74, -21.39, -18.31, 0.000, 0.000, 0.000, 03:59:45.533
3, -20.90, -26.40, -18.66, -22.17, -24.94, -14.98, -16.85, -22.13, -19.00, -23.58, -14.17, -23.96, -25.37, -24.74, -21.39, -18.31, 0.000, 0.000, 0.000, 03:59:45.537
4, -20.90, -26.40, -18.66, -22.17, -24.94, -14.98, -16.85, -22.13, -18.75, -23.29, -13.90, -23.98, -25.53, -24.86, -21.26, -18.19, 0.000, 0.000, 0.000, 03:59:45.539
5, -20.74, -26.49, -18.55, -22.22, -25.10, -14.91, -16.83, -22.28, -18.75, -23.29, -13.90, -23.98, -25.53, -24.86, -21.26, -18.19, 0.000, 0.000, 0.000, 03:59:45.543
6, -20.74, -26.49, -18.55, -22.22, -25.10, -14.91, -16.83, -22.28, -18.93, -23.54, -13.95, -23.96, -25.19, -24.83, -21.21, -18.08, 0.008, 0.952, 0.288, 03:59:45.548
7, -20.72, -26.64, -18.60, -22.28, -24.97, -14.66, -16.81, -22.11, -18.93, -23.54, -13.95, -23.96, -25.19, -24.83, -21.21, -18.08, 0.000, 0.000, 0.000, 03:59:45.552
8, -20.72, -26.64, -18.60, -22.28, -24.97, -14.66, -16.81, -22.11, -19.16, -23.63, -14.01, -24.01, -25.17, -24.99, -21.28, -18.24, 0.000, 0.000, 0.000, 03:59:45.556
9, -20.90, -26.71, -18.69, -22.22, -24.88, -14.84, -16.74, -22.02, -19.16, -23.63, -14.01, -24.01, -25.17, -24.99, -21.28, -18.24, 0.000, 0.000, 0.000, 03:59:45.560
10, -20.90, -26.71, -18.69, -22.22, -24.88, -14.84, -16.74, -22.02, -18.93, -23.38, -13.97, -23.83, -25.32, -24.94, -21.14, -18.04, 0.000, 0.000, 0.000, 03:59:45.563
11, -20.79, -26.58, -18.71, -22.24, -25.19, -15.09, -16.74, -21.97, -18.93, -23.38, -13.97, -23.83, -25.32, -24.94, -21.14, -18.04, 0.000, 0.000, 0.000, 03:59:45.567
12, -20.79, -26.58, -18.71, -22.24, -25.19, -15.09, -16.74, -21.97, -19.00, -23.38, -13.95, -24.21, -25.55, -24.94, -21.08, -17.93, 0.000, 0.000, 0.000, 03:59:45.571
13, -20.70, -26.60, -18.24, -22.33, -24.90, -14.89, -16.83, -22.04, -19.00, -23.38, -13.95, -24.21, -25.55, -24.94, -21.08, -17.93, 0.000, 0.000, 0.000, 03:59:45.576
14, -20.70, -26.60, -18.24, -22.33, -24.90, -14.89, -16.83, -22.04, -19.09, -23.29, -13.79, -24.03, -25.39, -24.90, -21.32, -17.90, 0.000, 0.000, 0.000, 03:59:45.581
15, -20.65, -26.55, -18.46, -22.04, -24.86, -14.82, -16.94, -22.33, -19.09, -23.29, -13.79, -24.03, -25.39, -24.90, -21.32, -17.90, 0.000, 0.000, 0.000, 03:59:45.584
16, -20.65, -26.55, -18.46, -22.04, -24.86, -14.82, -16.94, -22.33, -18.93, -23.51, -13.88, -23.94, -25.24, -25.08, -21.10, -18.02, 0.004, 0.972, 0.272, 03:59:45.589
17, -20.68, -26.62, -18.44, -22.11, -24.99, -14.95, -16.76, -22.28, -18.93, -23.51, -13.88, -23.94, -25.24, -25.08, -21.10, -18.02, 0.000, 0.000, 0.000, 03:59:45.592
18, -20.68, -26.62, -18.44, -22.11, -24.99, -14.95, -16.76, -22.28, -18.89, -23.47, -14.01, -23.83, -25.24, -24.74, -21.08, -17.99, 0.000, 0.000, 0.000, 03:59:45.596
19, -20.99, -26.76, -18.53, -22.04, -24.90, -14.66, -16.81, -22.20, -18.89, -23.47, -14.01, -23.83, -25.24, -24.74, -21.08, -17.99, 0.000, 0.000, 0.000, 03:59:45.602
20, -20.99, -26.76, -18.53, -22.04, -24.90, -14.66, -16.81, -22.20, -19.02, -23.45, -13.95, -23.98, -25.32, -24.74, -21.14, -18.04, 0.000, 0.000, 0.000, 03:59:45.605
21, -20.83, -26.40, -18.60, -21.95, -24.86, -14.91, -16.67, -22.20, -19.02, -23.45, -13.95, -23.98, -25.32, -24.74, -21.14, -18.04, 0.000, 0.000, 0.000, 03:59:45.610
22, -20.83, -26.40, -18.60, -21.95, -24.86, -14.91, -16.67, -22.20, -18.84, -23.47, -13.90, -24.01, -25.35, -24.70, -21.01, -18.04, 0.000, 0.000, 0.000, 03:59:45.612
23, -20.56, -26.60, -18.55, -22.04, -25.06, -14.80, -16.58, -22.22, -18.84, -23.47, -13.90, -24.01, -25.35, -24.70, -21.01, -18.04, 0.000, 0.000, 0.000, 03:59:45.616
24, -20.56, -26.60, -18.55, -22.04, -25.06, -14.80, -16.58, -22.22, -18.84, -23.58, -13.88, -24.01, -25.35, -24.86, -21.26, -18.13, 0.000, 0.000, 0.000, 03:59:45.619
25, -20.72, -26.67, -18.46, -22.24, -24.97, -14.77, -16.88, -22.04, -18.84, -23.58, -13.88, -24.01, -25.35, -24.86, -21.26, -18.13, 0.000, 0.000, 0.000, 03:59:45.623
26, -20.72, -26.67, -18.46, -22.24, -24.97, -14.77, -16.88, -22.04, -18.71, -23.63, -13.93, -24.03, -25.37, -24.54, -20.97, -18.08, 0.018, 0.948, 0.282, 03:59:45.628
27, -20.83, -26.69, -18.55, -21.97, -24.99, -15.00, -16.45, -22.31, -18.71, -23.63, -13.93, -24.03, -25.37, -24.54, -20.97, -18.08, 0.000, 0.000, 0.000, 03:59:45.631
28, -20.83, -26.69, -18.55, -21.97, -24.99, -15.00, -16.45, -22.31, -18.95, -23.22, -13.99, -23.96, -25.32, -24.68, -21.03, -17.86, 0.000, 0.000, 0.000, 03:59:45.636
29, -20.63, -26.69, -18.26, -22.06, -24.94, -14.77, -16.76, -22.04, -18.95, -23.22, -13.99, -23.96, -25.32, -24.68, -21.03, -17.86, 0.000, 0.000, 0.000, 03:59:45.640
30, -20.63, -26.69, -18.26, -22.06, -24.94, -14.77, -16.76, -22.04, -18.82, -23.49, -13.97, -24.07, -25.48, -24.88, -21.37, -18.04, 0.000, 0.000, 0.000, 03:59:45.642
31, -20.63, -26.35, -18.55, -21.95, -24.99, -14.95, -16.65, -22.15, -18.82, -23.49, -13.97, -24.07, -25.48, -24.88, -21.37, -18.04, 0.000, 0.000, 0.000, 03:59:45.647
32, -20.63, -26.35, -18.55, -21.95, -24.99, -14.95, -16.65, -22.15, -18.93, -23.38, -13.93, -23.92, -25.30, -24.90, -21.37, -18.08, 0.000, 0.000, 0.000, 03:59:45.652
33, -20.92, -26.42, -18.53, -22.13, -24.94, -14.98, -16.65, -22.04, -18.93, -23.38, -13.93, -23.92, -25.30, -24.90, -21.37, -18.08, 0.000, 0.000, 0.000, 03:59:45.655
34, -20.92, -26.42, -18.53, -22.13, -24.94, -14.98, -16.65, -22.04, -18.84, -23.49, -13.93, -24.07, -25.32, -24.83, -21.17, -18.08, 0.000, 0.000, 0.000, 03:59:45.660
35, -20.68, -26.40, -18.57, -22.02, -25.03, -14.77, -16.72, -21.79, -18.84, -23.49, -13.93, -24.07, -25.32, -24.83, -21.17, -18.08, 0.000, 0.000, 0.000, 03:59:45.663
36, -20.68, -26.40, -18.57, -22.02, -25.03, -14.77, -16.72, -21.79, -18.78, -23.56, -13.72, -24.03, -25.32, -24.72, -21.26, -18.26, 0.010, 0.978, 0.300, 03:59:45.667
37, -20.74, -26.51, -18.55, -22.20, -25.08, -14.82, -16.56, -22.24, -18.78, -23.56, -13.72, -24.03, -25.32, -24.72, -21.26, -18.26, 0.000, 0.000, 0.000, 03:59:45.671
38, -20.74, -26.51, -18.55, -22.20, -25.08, -14.82, -16.56, -22.24, -18.80, -23.54, -13.95, -23.92, -25.30, -24.68, -20.99, -17.95, 0.000, 0.000, 0.000, 03:59:45.675
39, -20.74, -26.64, -18.44, -22.22, -25.01, -14.95, -16.70, -22.06, -18.80, -23.54, -13.95, -23.92, -25.30, -24.68, -20.99, -17.95, 0.000, 0.000, 0.000, 03:59:45.680
40, -20.74, -26.64, -18.44, -22.22, -25.01, -14.95, -16.70, -22.06, -18.95, -23.51, -13.90, -24.05, -25.24, -24.77, -21.21, -18.31, 0.000, 0.000, 0.000, 03:59:45.686
41, -20.70, -26.67, -18.44, -22.02, -25.10, -14.84, -16.61, -21.97, -18.95, -23.51, -13.90, -24.05, -25.24, -24.77, -21.21, -18.31, 0.000, 0.000, 0.000, 03:59:45.688
42, -20.70, -26.67, -18.44, -22.02, -25.10, -14.84, -16.61, -21.97, -18.69, -23.42, -13.90, -23.94, -25.39, -24.72, -21.12, -17.95, 0.000, 0.000, 0.000, 03:59:45.692
43, -20.63, -26.62, -18.42, -21.93, -24.99, -14.82, -16.83, -22.26, -18.69, -23.42, -13.90, -23.94, -25.39, -24.72, -21.12, -17.95, 0.000, 0.000, 0.000, 03:59:45.694
44, -20.63, -26.62, -18.42, -21.93, -24.99, -14.82, -16.83, -22.26, -18.69, -23.47, -13.99, -24.05, -25.44, -24.68, -21.06, -18.04, 0.000, 0.000, 0.000, 03:59:45.698
45, -20.45, -26.71, -18.46, -22.06, -25.01, -14.89, -16.79, -22.15, -18.69, -23.47, -13.99, -24.05, -25.44, -24.68, -21.06, -18.04, 0.000, 0.000, 0.000, 03:59:45.704
46, -20.45, -26.71, -18.46, -22.06, -25.01, -14.89, -16.79, -22.15, -18.98, -23.58, -14.10, -23.98, -25.17, -24.83, -21.01, -18.26, 0.006, 0.966, 0.320, 03:59:45.707
47, -20.68, -26.53, -18.64, -22.02, -24.90, -14.84, -16.74, -22.22, -18.98, -23.58, -14.10, -23.98, -25.17, -24.83, -21.01, -18.26, 0.000, 0.000, 0.000, 03:59:45.711
48, -20.68, -26.53, -18.64, -22.02, -24.90, -14.84, -16.74, -22.22, -19.07, -23.38, -13.86, -24.18, -25.21, -24.70, -21.21, -17.99, 0.000, 0.000, 0.000, 03:59:45.715
49, -20.56, -26.53, -18.40, -22.20, -24.86, -14.98, -16.67, -21.99, -19.07, -23.38, -13.86, -24.18, -25.21, -24.70, -21.21, -17.99, 0.000, 0.000, 0.000, 03:59:45.719
50, -20.56, -26.53, -18.40, -22.20, -24.86, -14.98, -16.67, -21.99, -19.00, -23.47, -14.04, -23.92, -25.41, -24.81, -21.21, -18.08, 0.000, 0.000, 0.000, 03:59:45.723
51, -20.92, -26.38, -18.57, -22.06, -24.99, -14.80, -16.61, -22.17, -19.00, -23.47, -14.04, -23.92, -25.41, -24.81, -21.21, -18.08, 0.000, 0.000, 0.000, 03:59:45.728
52, -20.92, -26.38, -18.57, -22.06, -24.99, -14.80, -16.61, -22.17, -18.75, -23.34, -14.08, -24.01, -25.32, -24.56, -21.12, -18.17, 0.000, 0.000, 0.000, 03:59:45.732
53, -20.76, -26.58, -18.62, -21.95, -24.94, -14.77, -16.61, -21.99, -18.75, -23.34, -14.08, -24.01, -25.32, -24.56, -21.12, -18.17, 0.000, 0.000, 0.000, 03:59:45.735
54, -20.76, -26.58, -18.62, -21.95, -24.94, -14.77, -16.61, -21.99, -19.13, -23.42, -13.97, -23.96, -25.37, -24.97, -21.23, -18.04, 0.000, 0.000, 0.000, 03:59:45.740
55, -20.47, -26.53, -18.71, -22.22, -25.01, -14.89, -16.47, -21.97, -19.13, -23.42, -13.97, -23.96, -25.37, -24.97, -21.23, -18.04, 0.000, 0.000, 0.000, 03:59:45.743
56, -20.47, -26.53, -18.71, -22.22, -25.01, -14.89, -16.47, -21.97, -18.95, -23.38, -14.08, -23.94, -25.55, -24.83, -21.12, -18.17, 0.006, 0.982, 0.306, 03:59:45.747
57, -20.74, -26.58, -18.71, -22.22, -25.08, -14.84, -16.47, -22.13, -18.95, -23.38, -14.08, -23.94, -25.55, -24.83, -21.12, -18.17, 0.000, 0.000, 0.000, 03:59:45.750
58, -20.74, -26.58, -18.71, -22.22, -25.08, -14.84, -16.47, -22.13, -18.91, -23.54, -13.95, -23.98, -25.30, -24.88, -21.30, -18.19, 0.000, 0.000, 0.000, 03:59:45.755
59, -21.01, -26.60, -18.78, -22.17, -25.17, -14.95, -16.85, -22.22, -18.91, -23.54, -13.95, -23.98, -25.30, -24.88, -21.30, -18.19, 0.000, 0.000, 0.000, 03:59:45.760
60, -21.01, -26.60, -18.78, -22.17, -25.17, -14.95, -16.85, -22.22, -19.00, -23.38, -13.88, -24.07, -25.30, -24.90, -21.32, -17.86, 0.000, 0.000, 0.000, 03:59:45.763
61, -20.92, -26.62, -18.48, -22.22, -24.94, -14.98, -16.65, -21.95, -19.00, -23.38, -13.88, -24.07, -25.30, -24.90, -21.32, -17.86, 0.000, 0.000, 0.000, 03:59:45.767
62, -20.92, -26.62, -18.48, -22.22, -24.94, -14.98, -16.65, -21.95, -19.07, -23.67, -13.86, -23.98, -25.24, -24.83, -21.41, -17.93, 0.000, 0.000, 0.000, 03:59:45.770
63, -20.65, -26.76, -18.42, -22.24, -25.03, -15.15, -16.74, -22.04, -19.07, -23.67, -13.86, -23.98, -25.24, -24.83, -21.41, -17.93, 0.000, 0.000, 0.000, 03:59:45.774
64, -20.65, -26.76, -18.42, -22.24, -25.03, -15.15, -16.74, -22.04, -18.82, -23.60, -13.95, -23.96, -25.32, -24.74, -21.19, -18.04, 0.000, 0.000, 0.000, 03:59:45.779
65, -20.72, -26.69, -18.57, -21.90, -24.97, -14.95, -16.74, -22.26, -18.82, -23.60, -13.95, -23.96, -25.32, -24.74, -21.19, -18.04, 0.018, 0.930, 0.274, 03:59:45.782
66, -20.72, -26.69, -18.57, -21.90, -24.97, -14.95, -16.74, -22.26, -18.71, -23.40, -13.97, -23.94, -25.41, -24.74, -21.35, -18.22, 0.000, 0.000, 0.000, 03:59:45.786
67, -20.61, -26.78, -18.57, -21.88, -24.94, -15.02, -16.72, -22.08, -18.71, -23.40, -13.97, -23.94, -25.41, -24.74, -21.35, -18.22, 0.000, 0.000, 0.000, 03:59:45.792
68, -20.61, -26.78, -18.57, -21.88, -24.94, -15.02, -16.72, -22.08, -19.02, -23.45, -14.04, -23.94, -25.37, -24.88, -21.14, -18.10, 0.000, 0.000, 0.000, 03:59:45.796
69, -20.72, -26.33, -18.62, -22.20, -24.92, -15.00, -16.63, -22.31, -19.02, -23.45, -14.04, -23.94, -25.37, -24.88, -21.14, -18.10, 0.000, 0.000, 0.000, 03:59:45.798
70, -20.72, -26.33, -18.62, -22.20, -24.92, -15.00, -16.63, -22.31, -19.04, -23.42, -13.86, -24.07, -25.30, -24.77, -21.19, -18.10, 0.000, 0.000, 0.000, 03:59:45.803
71, -20.68, -26.71, -18.80, -22.26, -24.74, -14.75, -16.70, -22.15, -19.04, -23.42, -13.86, -24.07, -25.30, -24.77, -21.19, -18.10, 0.000, 0.000, 0.000, 03:59:45.807
72, -20.68, -26.71, -18.80, -22.26, -24.74, -14.75, -16.70, -22.15, -18.95, -23.47, -13.75, -24.05, -25.21, -24.77, -21.23, -18.02, 0.000, 0.000, 0.000, 03:59:45.810
73, -20.79, -26.62, -18.69, -22.08, -24.77, -14.98, -16.74, -22.17, -18.95, -23.47, -13.75, -24.05, -25.21, -24.77, -21.23, -18.02, 0.000, 0.000, 0.000, 03:59:45.816
74, -20.79, -26.62, -18.69, -22.08, -24.77, -14.98, -16.74, -22.17, -18.82, -23.42, -13.97, -23.98, -25.30, -24.79, -21.10, -18.24, 0.000, 0.000, 0.000, 03:59:45.821
75, -20.59, -26.51, -18.44, -21.86, -24.90, -14.77, -16.61, -22.06, -18.82, -23.42, -13.97, -23.98, -25.30, -24.79, -21.10, -18.24, 0.018, 0.944, 0.266, 03:59:45.824
76, -20.59, -26.51, -18.44, -21.86, -24.90, -14.77, -16.61, -22.06, -18.98, -23.25, -13.88, -23.98, -25.28, -24.68, -21.32, -17.95, 0.000, 0.000, 0.000, 03:59:45.828
77, -20.65, -26.35, -18.57, -22.13, -25.10, -14.93, -16.96, -22.24, -18.98, -23.25, -13.88, -23.98, -25.28, -24.68, -21.32, -17.95, 0.000, 0.000, 0.000, 03:59:45.832
78, -20.65, -26.35, -18.57, -22.13, -25.10, -14.93, -16.96, -22.24, -18.84, -23.34, -13.81, -23.92, -25.46, -24.68, -21.39, -18.10, 0.000, 0.000, 0.000, 03:59:45.837
79, -20.81, -26.46, -18.64, -22.15, -24.99, -14.86, -16.81, -22.13, -18.84, -23.34, -13.81, -23.92, -25.46, -24.68, -21.39, -18.10, 0.000, 0.000, 0.000, 03:59:45.839
80, -20.81, -26.46, -18.64, -22.15, -24.99, -14.86, -16.81, -22.13, -18.86, -23.49, -13.99, -23.94, -25.46, -24.59, -21.26, -18.13, 0.000, 0.000, 0.000, 03:59:45.845
81, -20.81, -26.49, -18.57, -22.13, -24.79, -14.93, -16.61, -22.02, -18.86, -23.49, -13.99, -23.94, -25.46, -24.59, -21.26, -18.13, 0.000, 0.000, 0.000, 03:59:45.847
82, -20.81, -26.49, -18.57, -22.13, -24.79, -14.93, -16.61, -22.02, -18.78, -23.42, -13.99, -24.12, -25.41, -24.83, -21.23, -18.04, 0.000, 0.000, 0.000, 03:59:45.852
83, -20.59, -26.80, -18.53, -22.15, -25.01, -14.82, -16.56, -22.20, -18.78, -23.42, -13.99, -24.12, -25.41, -24.83, -21.23, -18.04, 0.000, 0.000, 0.000, 03:59:45.854
84, -20.59, -26.80, -18.53, -22.15, -25.01, -14.82, -16.56, -22.20, -18.93, -23.51, -13.95, -24.12, -25.26, -24.68, -21.10, -18.08, 0.000, 0.000, 0.000, 03:59:45.858
85, -20.61, -26.67, -18.53, -22.04, -25.06, -14.75, -16.81, -21.99, -18.93, -23.51, -13.95, -24.12, -25.26, -24.68, -21.10, -18.08, 0.010, 0.922, 0.286, 03:59:45.863
86, -20.61, -26.67, -18.53, -22.04, -25.06, -14.75, -16.81, -21.99, -18.86, -23.47, -13.90, -23.92, -25.39, -24.90, -21.21, -18.04, 0.000, 0.000, 0.000, 03:59:45.867
87, -20.85, -26.62, -18.51, -22.20, -25.03, -14.71, -16.65, -22.06, -18.86, -23.47, -13.90, -23.92, -25.39, -24.90, -21.21, -18.04, 0.000, 0.000, 0.000, 03:59:45.870
88, -20.85, -26.62, -18.51, -22.20, -25.03, -14.71, -16.65, -22.06, -18.95, -23.29, -13.81, -23.94, -25.21, -24.65, -21.23, -18.19, 0.000, 0.000, 0.000, 03:59:45.876
89, -20.94, -26.58, -18.46, -22.24, -24.90, -14.86, -16.67, -22.13, -18.95, -23.29, -13.81, -23.94, -25.21, -24.65, -21.23, -18.19, 0.000, 0.000, 0.000, 03:59:45.879
90, -20.94, -26.58, -18.46, -22.24, -24.90, -14.86, -16.67, -22.13, -18.89, -23.47, -13.75, -23.92, -25.21, -24.81, -21.10, -18.28, 0.000, 0.000, 0.000, 03:59:45.883
91, -20.90, -26.69, -18.42, -22.28, -24.94, -14.91, -16.72, -22.24, -18.89, -23.47, -13.75, -23.92, -25.21, -24.81, -21.10, -18.28, 0.000, 0.000, 0.000, 03:59:45.887
92, -20.90, -26.69, -18.42, -22.28, -24.94, -14.91, -16.72, -22.24, -18.93, -23.49, -13.72, -23.89, -25.50, -24.94, -21.39, -18.26, 0.000, 0.000, 0.000, 03:59:45.891
93, -20.83, -26.58, -18.51, -21.95, -24.88, -15.00, -16.81, -22.04, -18.93, -23.49, -13.72, -23.89, -25.50, -24.94, -21.39, -18.26, 0.000, 0.000, 0.000, 03:59:45.894
94, -20.83, -26.58, -18.51, -21.95, -24.88, -15.00, -16.81, -22.04, -18.82, -23.49, -13.95, -23.83, -25.32, -24.81, -21.28, -18.31, 0.000, 0.000, 0.000, 03:59:45.901
95, -20.56, -26.64, -18.53, -22.06, -24.88, -15.04, -16.76, -22.06, -18.82, -23.49, -13.95, -23.83, -25.32, -24.81, -21.28, -18.31, 0.008, 0.904, 0.284, 03:59:45.905
96, -20.56, -26.64, -18.53, -22.06, -24.88, -15.04, -16.76, -22.06, -18.98, -23.63, -13.97, -23.98, -25.21, -24.74, -21.35, -18.17, 0.000, 0.000, 0.000, 03:59:45.908
97, -20.50, -26.73, -18.60, -21.77, -25.06, -14.84, -16.74, -21.99, -18.98, -23.63, -13.97, -23.98, -25.21, -24.74, -21.35, -18.17, 0.000, 0.000, 0.000, 03:59:45.912
98, -20.50, -26.73, -18.60, -21.77, -25.06, -14.84, -16.74, -21.99, -18.93, -23.45, -13.90, -23.85, -25.37, -24.83, -21.32, -18.10, 0.000, 0.000, 0.000, 03:59:45.915
99, -20.59, -26.58, -18.69, -21.86, -24.94, -14.91, -16.90, -22.11, -18.93, -23.45, -13.90, -23.85, -25.37, -24.83, -21.32, -18.10, 0.000, 0.000, 0.000, 03:59:45.920
100, -20.59, -26.58, -18.69, -21.86, -24.94, -14.91, -16.90, -22.11, -18.86, -23.27, -13.99, -24.01, -25.50, -24.94, -21.39, -18.10, 0.000, 0.000, 0.000, 03:59:45.924
101, -20.63, -26.51, -18.42, -22.20, -25.24, -15.02, -16.65, -22.11, -18.86, -23.27, -13.99, -24.01, -25.50, -24.94, -21.39, -18.10, 0.000, 0.000, 0.000, 03:59:45.926
102, -20.63, -26.51, -18.42, -22.20, -25.24, -15.02, -16.65, -22.11, -18.66, -23.42, -13.81, -23.94, -25.39, -24.77, -21.32, -18.13, 0.000, 0.000, 0.000, 03:59:45.932
103, -20.70, -26.40, -18.60, -22.15, -25.10, -14.84, -16.81, -22.13, -18.66, -23.42, -13.81, -23.94, -25.39, -24.77, -21.32, -18.13, 0.000, 0.000, 0.000, 03:59:45.936
104, -20.70, -26.40, -18.60, -22.15, -25.10, -14.84, -16.81, -22.13, -18.89, -23.36, -13.90, -23.80, -25.50, -24.65, -21.17, -18.13, 0.000, 0.000, 0.000, 03:59:45.939
105, -20.76, -26.64, -18.48, -22.04, -25.08, -14.80, -16.72, -22.20, -18.89, -23.36, -13.90, -23.80, -25.50, -24.65, -21.17, -18.13, 0.018, 0.934, 0.282, 03:59:45.943
106, -20.76, -26.64, -18.48, -22.04, -25.08, -14.80, -16.72, -22.20, -18.82, -23.51, -14.15, -23.89, -25.48, -24.79, -21.17, -18.06, 0.000, 0.000, 0.000, 03:59:45.946
107, -20.61, -26.40, -18.60, -22.13, -24.92, -14.82, -16.72, -22.15, -18.82, -23.51, -14.15, -23.89, -25.48, -24.79, -21.17, -18.06, 0.000, 0.000, 0.000, 03:59:45.951
108, -20.61, -26.40, -18.60, -22.13, -24.92, -14.82, -16.72, -22.15, -18.98, -23.45, -13.77, -24.01, -25.28, -24.99, -20.97, -17.93, 0.000, 0.000, 0.000, 03:59:45.955
109, -20.65, -26.49, -18.57, -21.93, -24.83, -15.00, -16.79, -22.20, -18.98, -23.45, -13.77, -24.01, -25.28, -24.99, -20.97, -17.93, 0.000, 0.000, 0.000, 03:59:45.959
110, -20.65, -26.49, -18.57, -21.93, -24.83, -15.00, -16.79, -22.20, -18.98, -23.47, -14.04, -24.07, -25.37, -24.97, -21.10, -17.90, 0.000, 0.000, 0.000, 03:59:45.962
111, -20.63, -26.46, -18.60, -22.06, -24.88, -14.98, -16.85, -22.26, -18.98, -23.47, -14.04, -24.07, -25.37, -24.97, -21.10, -17.90, 0.000, 0.000, 0.000, 03:59:45.966
112, -20.63, -26.46, -18.60, -22.06, -24.88, -14.98, -16.85, -22.26, -18.98, -23.56, -14.01, -23.96, -25.35, -24.79, -21.19, -18.22, 0.000, 0.000, 0.000, 03:59:45.971
113, -20.74, -26.67, -18.62, -22.17, -24.94, -14.86, -16.79, -22.17, -18.98, -23.56, -14.01, -23.96, -25.35, -24.79, -21.19, -18.22, 0.000, 0.000, 0.000, 03:59:45.974
114, -20.74, -26.67, -18.62, -22.17, -24.94, -14.86, -16.79, -22.17, -18.82, -23.40, -13.86, -23.87, -25.30, -24.72, -21.14, -17.99, 0.000, 0.000, 0.000, 03:59:45.979
115, -20.74, -26.73, -18.26, -22.15, -24.81, -14.91, -16.65, -22.24, -18.82, -23.40, -13.86, -23.87, -25.30, -24.72, -21.14, -17.99, 0.008, 0.954, 0.314, 03:59:45.982
116, -20.74, -26.73, -18.26, -22.15, -24.81, -14.91, -16.65, -22.24, -18.93, -23.69, -13.95, -23.92, -25.26, -24.70, -21.39, -18.08, 0.000, 0.000, 0.000, 03:59:45.987
117, -20.76, -26.58, -18.57, -21.97, -24.94, -14.73, -16.90, -22.04, -18.93, -23.69, -13.95, -23.92, -25.26, -24.70, -21.39, -18.08, 0.000, 0.000, 0.000, 03:59:45.992
118, -20.76, -26.58, -18.57, -21.97, -24.94, -14.73, -16.90, -22.04, -18.78, -23.42, -13.93, -23.78, -25.28, -24.65, -21.21, -17.86, 0.000, 0.000, 0.000, 03:59:45.995
119, -20.90, -26.53, -18.62, -22.06, -24.97, -14.93, -16.74, -22.24, -18.78, -23.42, -13.93, -23.78, -25.28, -24.65, -21.21, -17.86, 0.000, 0.000, 0.000, 03:59:46.000
120, -20.90, -26.53, -18.62, -22.06, -24.97, -14.93, -16.74, -22.24, -18.95, -23.13, -13.77, -23.98, -25.37, -24.81, -21.26, -18.15, 0.000, 0.000, 0.000, 03:59:46.003
121, -20.83, -26.55, -18.46, -22.08, -24.92, -14.80, -16.65, -22.08, -18.95, -23.13, -13.77, -23.98, -25.37, -24.81, -21.26, -18.15, 0.000, 0.000, 0.000, 03:59:46.006
122, -20.83, -26.55, -18.46, -22.08, -24.92, -14.80, -16.65, -22.08, -18.95, -23.56, -13.70, -24.07, -25.37, -24.74, -21.19, -18.33, 0.000, 0.000, 0.000, 03:59:46.011
123, -20.70, -26.60, -18.26, -22.20, -24.97, -14.64, -16.79, -22.11, -18.95, -23.56, -13.70, -24.07, -25.37, -24.74, -21.19, -18.33, 0.000, 0.000, 0.000, 03:59:46.014
124, -20.70, -26.60, -18.26, -22.20, -24.97, -14.64, -16.79, -22.11, -18.82, -23.38, -13.81, -23.96, -25.06, -25.03, -21.12, -18.19, 0.000, 0.936, 0.288, 03:59:46.017
125, -20.59, -26.44, -18.48, -22.22, -24.88, -14.91, -16.52, -22.17, -18.82, -23.38, -13.81, -23.96, -25.06, -25.03, -21.12, -18.19, 0.000, 0.000, 0.000, 03:59:46.022
126, -20.59, -26.44, -18.48, -22.22, -24.88, -14.91, -16.52, -22.17, -18.75, -23.36, -13.81, -24.05, -25.21, -24.59, -21.08, -18.06, 0.000, 0.000, 0.000, 03:59:46.026
127, -20.70, -26.51, -18.51, -21.99, -24.92, -15.00, -16.79, -22.13, -18.75, -23.36, -13.81, -24.05, -25.21, -24.59, -21.08, -18.06, 0.000, 0.000, 0.000, 03:59:46.030
128, -20.70, -26.51, -18.51, -21.99, -24.92, -15.00, -16.79, -22.13, -18.98, -23.29, -13.77, -23.92, -25.46, -24.81, -21.12, -18.17, 0.000, 0.000, 0.000, 03:59:46.035
129, -20.68, -26.53, -18.37, -22.26, -24.99, -14.71, -16.85, -21.93, -18.98, -23.29, -13.77, -23.92, -25.46, -24.81, -21.12, -18.17, 0.000, 0.000, 0.000, 03:59:46.039
130, -20.68, -26.53, -18.37, -22.26, -24.99, -14.71, -16.85, -21.93, -18.84, -23.47, -13.95, -24.12, -25.39, -24.65, -21.19, -18.17, 0.000, 0.000, 0.000, 03:59:46.041
131, -20.63, -26.60, -18.48, -22.24, -24.86, -15.02, -16.63, -22.15, -18.84, -23.47, -13.95, -24.12, -25.39, -24.65, -21.19, -18.17, 0.000, 0.000, 0.000, 03:59:46.046
132, -20.63, -26.60, -18.48, -22.24, -24.86, -15.02, -16.63, -22.15, -18.69, -23.40, -13.88, -24.18, -25.28, -24.70, -21.28, -17.97, 0.000, 0.000, 0.000, 03:59:46.050
133, -20.63, -26.62, -18.53, -22.11, -24.90, -14.86, -16.74, -22.28, -18.69, -23.40, -13.88, -24.18, -25.28, -24.70, -21.28, -17.97, 0.000, 0.000, 0.000, 03:59:46.055
134, -20.63, -26.62, -18.53, -22.11, -24.90, -14.86, -16.74, -22.28, -18.66, -23.54, -13.75, -23.98, -25.21, -24.72, -20.92, -17.97, 0.006, 0.948, 0.290, 03:59:46.059
135, -20.85, -26.76, -18.57, -22.02, -24.94, -14.80, -16.67, -22.17, -18.66, -23.54, -13.75, -23.98, -25.21, -24.72, -20.92, -17.97, 0.000, 0.000, 0.000, 03:59:46.063
136, -20.85, -26.76, -18.57, -22.02, -24.94, -14.80, -16.67, -22.17, -18.95, -23.38, -14.04, -23.96, -25.35, -24.72, -21.01, -17.95, 0.000, 0.000, 0.000, 03:59:46.065
137, -20.68, -26.60, -18.66, -22.22, -25.03, -15.15, -16.63, -22.22, -18.95, -23.38, -14.04, -23.96, -25.35, -24.72, -21.01, -17.95, 0.000, 0.000, 0.000, 03:59:46.070
138, -20.68, -26.60, -18.66, -22.22, -25.03, -15.15, -16.63, -22.22, -18.93, -23.58, -14.15, -24.01, -25.41, -24.61, -21.26, -18.28, 0.000, 0.000, 0.000, 03:59:46.074
139, -20.83, -26.40, -18.66, -22.04, -25.03, -14.95, -16.81, -22.02, -18.93, -23.58, -14.15, -24.01, -25.41, -24.61, -21.26, -18.28, 0.000, 0.000, 0.000, 03:59:46.078
140, -20.83, -26.40, -18.66, -22.04, -25.03, -14.95, -16.81, -22.02, -18.82, -23.58, -13.84, -23.92, -25.39, -24.54, -21.32, -18.22, 0.000, 0.000, 0.000, 03:59:46.082
141, -20.83, -26.35, -18.46, -22.15, -24.88, -15.00, -16.70, -22.15, -18.82, -23.58, -13.84, -23.92, -25.39, -24.54, -21.32, -18.22, 0.000, 0.000, 0.000, 03:59:46.086
142, -20.83, -26.35, -18.46, -22.15, -24.88, -15.00, -16.70, -22.15, -18.84, -23.49, -13.72, -23.87, -25.30, -24.79, -21.03, -18.13, 0.000, 0.000, 0.000, 03:59:46.091
143, -20.81, -26.60, -18.55, -21.90, -25.08, -15.18, -16.54, -22.11, -18.84, -23.49, -13.72, -23.87, -25.30, -24.79, -21.03, -18.13, 0.000, 0.000, 0.000, 03:59:46.095
144, -20.81, -26.60, -18.55, -21.90, -25.08, -15.18, -16.54, -22.11, -18.66, -23.42, -13.84, -24.03, -25.39, -24.81, -21.06, -18.15, 0.004, 0.920, 0.286, 03:59:46.099
145, -20.79, -26.58, -18.46, -22.11, -24.99, -14.93, -16.76, -22.17, -18.66, -23.42, -13.84, -24.03, -25.39, -24.81, -21.06, -18.15, 0.000, 0.000, 0.000, 03:59:46.102
146, -20.79, -26.58, -18.46, -22.11, -24.99, -14.93, -16.76, -22.17, -18.75, -23.49, -13.93, -23.98, -25.30, -24.86, -21.12, -18.19, 0.000, 0.000, 0.000, 03:59:46.105
147, -20.59, -26.60, -18.48, -21.82, -24.86, -14.89, -16.96, -22.20, -18.75, -23.49, -13.93, -23.98, -25.30, -24.86, -21.12, -18.19, 0.000, 0.000, 0.000, 03:59:46.110
148, -20.59, -26.60, -18.48, -21.82, -24.86, -14.89, -16.96, -22.20, -18.84, -23.13, -13.77, -23.94, -25.21, -24.79, -21.23, -18.28, 0.000, 0.000, 0.000, 03:59:46.114
149, -20.63, -26.69, -18.40, -22.17, -25.08, -14.86, -16.74, -22.08, -18.84, -23.13, -13.77, -23.94, -25.21, -24.79, -21.23, -18.28, 0.000, 0.000, 0.000, 03:59:46.118
150, -20.63, -26.69, -18.40, -22.17, -25.08, -14.86, -16.74, -22.08, -18.98, -23.25, -13.95, -24.07, -25.26, -24.97, -21.23, -18.08, 0.000, 0.000, 0.000, 03:59:46.122
151, -20.59, -26.60, -18.64, -22.11, -25.15, -14.91, -16.56, -21.97, -18.98, -23.25, -13.95, -24.07, -25.26, -24.97, -21.23, -18.08, 0.000, 0.000, 0.000, 03:59:46.126
152, -20.59, -26.60, -18.64, -22.11, -25.15, -14.91, -16.56, -21.97, -18.80, -23.47, -13.84, -23.98, -25.55, -24.70, -21.30, -17.99, 0.000, 0.000, 0.000, 03:59:46.130
153, -20.65, -26.55, -18.73, -22.15, -24.99, -14.91, -16.38, -22.02, -18.80, -23.47, -13.84, -23.98, -25.55, -24.70, -21.30, -17.99, 0.000, 0.000, 0.000, 03:59:46.134
154, -20.65, -26.55, -18.73, -22.15, -24.99, -14.91, -16.38, -22.02, -18.75, -23.58, -13.86, -23.89, -25.41, -24.81, -21.21, -17.95, 0.008, 0.896, 0.280, 03:59:46.139
155, -20.74, -26.62, -18.62, -22.44, -24.92, -14.80, -16.65, -21.84, -18.75, -23.58, -13.86, -23.89, -25.41, -24.81, -21.21, -17.95, 0.000, 0.000, 0.000, 03:59:46.143
156, -20.74, -26.62, -18.62, -22.44, -24.92, -14.80, -16.65, -21.84, -18.78, -23.49, -13.95, -23.94, -25.21, -24.90, -21.12, -17.93, 0.000, 0.000, 0.000, 03:59:46.146
157, -20.72, -26.62, -18.57, -22.04, -25.10, -15.09, -16.70, -22.02, -18.78, -23.49, -13.95, -23.94, -25.21, -24.90, -21.12, -17.93, 0.000, 0.000, 0.000, 03:59:46.149
158, -20.72, -26.62, -18.57, -22.04, -25.10, -15.09, -16.70, -22.02, -18.86, -23.58, -14.01, -23.98, -25.10, -24.99, -21.30, -17.88, 0.000, 0.000, 0.000, 03:59:46.154
159, -20.72, -26.51, -18.51, -22.22, -24.90, -15.07, -16.72, -21.88, -18.86, -23.58, -14.01, -23.98, -25.10, -24.99, -21.30, -17.88, 0.000, 0.000, 0.000, 03:59:46.157
160, -20.72, -26.51, -18.51, -22.22, -24.90, -15.07, -16.72, -21.88, -19.07, -23.47, -13.88, -23.85, -25.30, -24.99, -21.06, -18.10, 0.000, 0.000, 0.000, 03:59:46.162
161, -20.81, -26.73, -18.53, -21.90, -24.88, -14.82, -16.72, -22.17, -19.07, -23.47, -13.88, -23.85, -25.30, -24.99, -21.06, -18.10, 0.000, 0.000, 0.000, 03:59:46.166
162, -20.81, -26.73, -18.53, -21.90, -24.88, -14.82, -16.72, -22.17, -19.02, -23.38, -13.95, -23.96, -25.28, -24.79, -21.44, -17.99, 0.000, 0.000, 0.000, 03:59:46.172
163, -20.92, -26.64, -18.51, -22.24, -24.88, -14.73, -16.67, -22.15, -19.02, -23.38, -13.95, -23.96, -25.28, -24.79, -21.44, -17.99, 0.000, 0.000, 0.000, 03:59:46.174
164, -20.92, -26.64, -18.51, -22.24, -24.88, -14.73, -16.67, -22.15, -18.93, -23.34, -13.99, -23.69, -25.55, -24.86, -21.03, -18.24, 0.012, 0.940, 0.266, 03:59:46.177
165, -20.68, -26.67, -18.66, -22.08, -25.21, -14.91, -16.83, -22.06, -18.93, -23.34, -13.99, -23.69, -25.55, -24.86, -21.03, -18.24, 0.000, 0.000, 0.000, 03:59:46.182
166, -20.68, -26.67, -18.66, -22.08, -25.21, -14.91, -16.83, -22.06, -18.84, -23.54, -13.81, -23.92, -25.53, -24.86, -21.28, -18.08, 0.000, 0.000, 0.000, 03:59:46.186
167, -20.76, -26.64, -18.48, -22.06, -25.12, -14.91, -16.65, -22.08, -18.84, -23.54, -13.81, -23.92, -25.53, -24.86, -21.28, -18.08, 0.000, 0.000, 0.000, 03:59:46.190
168, -20.76, -26.64, -18.48, -22.06, -25.12, -14.91, -16.65, -22.08, -18.84, -23.47, -13.95, -23.72, -25.46, -24.90, -21.17, -17.72, 0.000, 0.000, 0.000, 03:59:46.194
169, -20.79, -26.67, -18.64, -22.15, -24.99, -14.91, -16.70, -22.15, -18.84, -23.47, -13.95, -23.72, -25.46, -24.90, -21.17, -17.72, 0.000, 0.000, 0.000, 03:59:46.199
170, -20.79, -26.67, -18.64, -22.15, -24.99, -14.91, -16.70, -22.15, -18.93, -23.56, -13.63, -23.98, -25.48, -24.86, -21.30, -17.84, 0.000, 0.000, 0.000, 03:59:46.202
171, -20.83, -26.64, -18.60, -22.08, -24.86, -14.89, -16.58, -22.15, -18.93, -23.56, -13.63, -23.98, -25.48, -24.86, -21.30, -17.84, 0.000, 0.000, 0.000, 03:59:46.205
172, -20.83, -26.64, -18.60, -22.08, -24.86, -14.89, -16.58, -22.15, -18.80, -23.51, -13.88, -23.98, -25.28, -24.81, -21.23, -18.13, 0.000, 0.000, 0.000, 03:59:46.209
173, -20.81, -26.64, -18.48, -21.99, -24.99, -14.91, -16.85, -22.06, -18.80, -23.51, -13.88, -23.98, -25.28, -24.81, -21.23, -18.13, 0.000, 0.000, 0.000, 03:59:46.214
174, -20.81, -26.64, -18.48, -21.99, -24.99, -14.91, -16.85, -22.06, -18.98, -23.42, -13.84, -24.07, -25.53, -24.90, -20.94, -18.17, 0.006, 0.944, 0.284, 03:59:46.218
175, -20.43, -26.84, -18.51, -21.93, -25.03, -15.15, -16.70, -22.08, -18.98, -23.42, -13.84, -24.07, -25.53, -24.90, -20.94, -18.17, 0.000, 0.000, 0.000, 03:59:46.222
176, -20.43, -26.84, -18.51, -21.93, -25.03, -15.15, -16.70, -22.08, -18.86, -23.40, -13.99, -23.83, -25.28, -25.03, -21.10, -18.06, 0.000, 0.000, 0.000, 03:59:46.226
177, -20.65, -26.62, -18.48, -21.97, -25.03, -15.00, -16.74, -21.82, -18.86, -23.40, -13.99, -23.83, -25.28, -25.03, -21.10, -18.06, 0.000, 0.000, 0.000, 03:59:46.231
178, -20.65, -26.62, -18.48, -21.97, -25.03, -15.00, -16.74, -21.82, -18.82, -23.38, -13.66, -23.92, -25.37, -25.01, -20.97, -18.24, 0.000, 0.000, 0.000, 03:59:46.233
179, -20.83, -26.62, -18.44, -22.04, -24.88, -15.02, -16.67, -22.11, -18.82, -23.38, -13.66, -23.92, -25.37, -25.01, -20.97, -18.24, 0.000, 0.000, 0.000, 03:59:46.239
180, -20.83, -26.62, -18.44, -22.04, -24.88, -15.02, -16.67, -22.11, -18.91, -23.56, -13.84, -23.87, -25.26, -24.77, -20.99, -17.95, 0.000, 0.000, 0.000, 03:59:46.244
181, -20.63, -26.62, -18.51, -21.95, -25.01, -14.86, -16.99, -21.95, -18.91, -23.56, -13.84, -23.87, -25.26, -24.77, -20.99, -17.95, 0.000, 0.000, 0.000, 03:59:46.246
182, -20.63, -26.62, -18.51, -21.95, -25.01, -14.86, -16.99, -21.95, -18.95, -23.29, -13.81, -23.89, -25.17, -24.90, -21.30, -17.97, 0.000, 0.000, 0.000, 03:59:46.251
183, -20.68, -26.58, -18.33, -21.99, -25.06, -15.02, -16.79, -21.93, -18.95, -23.29, -13.81, -23.89, -25.17, -24.90, -21.30, -17.97, 0.008, 0.946, 0.276, 03:59:46.258
184, -20.68, -26.58, -18.33, -21.99, -25.06, -15.02, -16.79, -21.93, -18.71, -23.47, -13.72, -23.96, -25.30, -24.88, -21.32, -18.17, 0.000, 0.000, 0.000, 03:59:46.261
185, -20.88, -26.62, -18.46, -21.97, -25.12, -15.09, -16.67, -22.02, -18.71, -23.47, -13.72, -23.96, -25.30, -24.88, -21.32, -18.17, 0.000, 0.000, 0.000, 03:59:46.265
186, -20.88, -26.62, -18.46, -21.97, -25.12, -15.09, -16.67, -22.02, -18.86, -23.45, -14.04, -24.07, -25.12, -24.70, -21.08, -18.10, 0.000, 0.000, 0.000, 03:59:46.268
187, -20.99, -26.58, -18.57, -21.99, -24.99, -14.95, -16.90, -21.93, -18.86, -23.45, -14.04, -24.07, -25.12, -24.70, -21.08, -18.10, 0.000, 0.000, 0.000, 03:59:46.272
188, -20.99, -26.58, -18.57, -21.99, -24.99, -14.95, -16.90, -21.93, -18.95, -23.54, -13.68, -24.05, -25.28, -24.86, -21.21, -18.15, 0.000, 0.000, 0.000, 03:59:46.274
189, -20.88, -26.35, -18.53, -22.02, -24.90, -15.00, -16.79, -22.24, -18.95, -23.54, -13.68, -24.05, -25.28, -24.86, -21.21, -18.15, 0.000, 0.000, 0.000, 03:59:46.278
190, -20.88, -26.35, -18.53, -22.02, -24.90, -15.00, -16.79, -22.24, -18.84, -23.36, -13.81, -24.03, -25.32, -24.59, -21.39, -18.02, 0.000, 0.000, 0.000, 03:59:46.281
191, -20.56, -26.42, -18.62, -22.08, -25.01, -14.89, -16.85, -22.13, -18.84, -23.36, -13.81, -24.03, -25.32, -24.59, -21.39, -18.02, 0.000, 0.000, 0.000, 03:59:46.285
192, -20.56, -26.42, -18.62, -22.08, -25.01, -14.89, -16.85, -22.13, -19.00, -23.40, -13.86, -24.14, -25.44, -24.83, -21.19, -18.19, 0.000, 0.000, 0.000, 03:59:46.290
193, -20.74, -26.67, -18.51, -22.11, -25.08, -14.93, -16.76, -22.24, -19.00, -23.40, -13.86, -24.14, -25.44, -24.83, -21.19, -18.19, 0.016, 0.940, 0.276, 03:59:46.293
194, -20.74, -26.67, -18.51, -22.11, -25.08, -14.93, -16.76, -22.24, -18.69, -23.42, -14.01, -24.01, -25.41, -25.01, -21.23, -18.10, 0.000, 0.000, 0.000, 03:59:46.298
195, -20.81, -26.44, -18.66, -22.26, -24.86, -14.86, -16.72, -22.26, -18.69, -23.42, -14.01, -24.01, -25.41, -25.01, -21.23, -18.10, 0.000, 0.000, 0.000, 03:59:46.303
196, -20.81, -26.44, -18.66, -22.26, -24.86, -14.86, -16.72, -22.26, -18.73, -23.40, -13.79, -24.03, -25.39, -24.92, -20.99, -17.97, 0.000, 0.000, 0.000, 03:59:46.306
197, -20.70, -26.55, -18.66, -22.04, -24.88, -14.82, -16.63, -22.13, -18.73, -23.40, -13.79, -24.03, -25.39, -24.92, -20.99, -17.97, 0.000, 0.000, 0.000, 03:59:46.311
198, -20.70, -26.55, -18.66, -22.04, -24.88, -14.82, -16.63, -22.13, -18.89, -23.49, -13.86, -24.12, -25.46, -24.81, -21.10, -18.19, 0.000, 0.000, 0.000, 03:59:46.314
199, -20.85, -26.46, -18.62, -22.06, -24.94, -15.04, -16.70, -21.88, -18.89, -23.49, -13.86, -24.12, -25.46, -24.81, -21.10, -18.19, 0.000, 0.000, 0.000, 03:59:46.319
200, -20.85, -26.46, -18.62, -22.06, -24.94, -15.04, -16.70, -21.88, -19.02, -23.45, -13.86, -23.92, -25.39, -24.99, -21.28, -18.04, 0.000, 0.000, 0.000, 03:59:46.324
201, -20.88, -26.53, -18.64, -22.13, -24.88, -14.77, -16.88, -22.24, -19.02, -23.45, -13.86, -23.92, -25.39, -24.99, -21.28, -18.04, 0.000, 0.000, 0.000, 03:59:46.326
202, -20.88, -26.53, -18.64, -22.13, -24.88, -14.77, -16.88, -22.24, -18.80, -23.58, -13.81, -24.01, -25.57, -24.92, -20.99, -18.08, 0.000, 0.000, 0.000, 03:59:46.331
203, -20.59, -26.53, -18.55, -22.26, -25.03, -14.86, -16.85, -22.08, -18.80, -23.58, -13.81, -24.01, -25.57, -24.92, -20.99, -18.08, 0.012, 0.950, 0.284, 03:59:46.335
204, -20.59, -26.53, -18.55, -22.26, -25.03, -14.86, -16.85, -22.08, -18.80, -23.38, -13.81, -23.89, -25.35, -24.90, -21.30, -18.19, 0.000, 0.000, 0.000, 03:59:46.339
205, -20.63, -26.58, -18.66, -22.06, -24.88, -14.95, -16.76, -22.13, -18.80, -23.38, -13.81, -23.89, -25.35, -24.90, -21.30, -18.19, 0.000, 0.000, 0.000, 03:59:46.343
206, -20.63, -26.58, -18.66, -22.06, -24.88, -14.95, -16.76, -22.13, -18.93, -23.31, -13.84, -23.94, -25.21, -24.79, -21.21, -18.10, 0.000, 0.000, 0.000, 03:59:46.345
207, -20.72, -26.58, -18.55, -22.13, -24.86, -14.66, -16.79, -22.17, -18.93, -23.31, -13.84, -23.94, -25.21, -24.79, -21.21, -18.10, 0.000, 0.000, 0.000, 03:59:46.350
208, -20.72, -26.58, -18.55, -22.13, -24.86, -14.66, -16.79, -22.17, -18.98, -23.63, -13.95, -24.10, -25.24, -24.74, -21.12, -18.08, 0.000, 0.000, 0.000, 03:59:46.354
209, -20.72, -26.64, -18.75, -22.11, -25.10, -15.00, -16.70, -22.02, -18.98, -23.63, -13.95, -24.10, -25.24, -24.74, -21.12, -18.08, 0.000, 0.000, 0.000, 03:59:46.358
210, -20.72, -26.64, -18.75, -22.11, -25.10, -15.00, -16.70, -22.02, -19.04, -23.60, -13.84, -23.83, -25.12, -24.83, -21.14, -18.02, 0.000, 0.000, 0.000, 03:59:46.362
211, -20.79, -26.51, -18.64, -22.11, -25.15, -14.75, -16.74, -21.97, -19.04, -23.60, -13.84, -23.83, -25.12, -24.83, -21.14, -18.02, 0.000, 0.000, 0.000, 03:59:46.365
212, -20.79, -26.51, -18.64, -22.11, -25.15, -14.75, -16.74, -21.97, -18.75, -23.47, -13.66, -23.83, -25.30, -24.77, -21.30, -18.08, 0.000, 0.000, 0.000, 03:59:46.370
213, -20.61, -26.44, -18.71, -21.93, -25.10, -14.95, -16.74, -22.08, -18.75, -23.47, -13.66, -23.83, -25.30, -24.77, -21.30, -18.08, 0.006, 0.940, 0.280, 03:59:46.373
214, -20.61, -26.44, -18.71, -21.93, -25.10, -14.95, -16.74, -22.08, -18.80, -23.34, -13.86, -23.98, -25.37, -24.92, -21.12, -17.95, 0.000, 0.000, 0.000, 03:59:46.377
215, -20.85, -26.53, -18.62, -22.06, -25.15, -14.95, -16.61, -22.06, -18.80, -23.34, -13.86, -23.98, -25.37, -24.92, -21.12, -17.95, 0.000, 0.000, 0.000, 03:59:46.384
216, -20.85, -26.53, -18.62, -22.06, -25.15, -14.95, -16.61, -22.06, -18.84, -23.60, -13.99, -24.07, -25.24, -24.70, -21.32, -17.95, 0.000, 0.000, 0.000, 03:59:46.386
217, -20.81, -26.60, -18.69, -22.04, -25.06, -14.98, -16.63, -22.26, -18.84, -23.60, -13.99, -24.07, -25.24, -24.70, -21.32, -17.95, 0.000, 0.000, 0.000, 03:59:46.390
218, -20.81, -26.60, -18.69, -22.04, -25.06, -14.98, -16.63, -22.26, -18.80, -23.78, -13.95, -23.96, -25.50, -24.48, -21.28, -18.08, 0.000, 0.000, 0.000, 03:59:46.393
219, -20.61, -26.60, -18.62, -21.97, -25.10, -15.04, -16.76, -22.15, -18.80, -23.78, -13.95, -23.96, -25.50, -24.48, -21.28, -18.08, 0.000, 0.000, 0.000, 03:59:46.397
220, -20.61, -26.60, -18.62, -21.97, -25.10, -15.04, -16.76, -22.15, -18.80, -23.67, -13.88, -23.98, -25.44, -24.77, -21.30, -18.02, 0.000, 0.000, 0.000, 03:59:46.403
221, -20.88, -26.40, -18.46, -22.08, -24.86, -14.80, -16.67, -21.97, -18.80, -23.67, -13.88, -23.98, -25.44, -24.77, -21.30, -18.02, 0.000, 0.000, 0.000, 03:59:46.407
222, -20.88, -26.40, -18.46, -22.08, -24.86, -14.80, -16.67, -21.97, -18.98, -23.49, -13.61, -23.72, -25.37, -24.70, -21.17, -18.10, 0.000, 0.000, 0.000, 03:59:46.410
223, -20.70, -26.44, -18.51, -21.95, -24.88, -15.00, -16.76, -22.11, -18.98, -23.49, -13.61, -23.72, -25.37, -24.70, -21.17, -18.10, 0.008, 0.920, 0.280, 03:59:46.415
224, -20.70, -26.44, -18.51, -21.95, -24.88, -15.00, -16.76, -22.11, -19.18, -23.56, -13.81, -23.89, -25.41, -24.70, -21.26, -18.02, 0.000, 0.000, 0.000, 03:59:46.417
225, -20.85, -26.53, -18.64, -22.08, -24.86, -14.89, -16.76, -22.06, -19.18, -23.56, -13.81, -23.89, -25.41, -24.70, -21.26, -18.02, 0.000, 0.000, 0.000, 03:59:46.422
226, -20.85, -26.53, -18.64, -22.08, -24.86, -14.89, -16.76, -22.06, -18.75, -23.38, -13.68, -23.94, -25.46, -24.68, -21.14, -17.84, 0.000, 0.000, 0.000, 03:59:46.425
227, -20.72, -26.60, -18.60, -22.11, -24.94, -14.98, -16.92, -21.99, -18.75, -23.38, -13.68, -23.94, -25.46, -24.68, -21.14, -17.84, 0.000, 0.000, 0.000, 03:59:46.430
228, -20.72, -26.60, -18.60, -22.11, -24.94, -14.98, -16.92, -21.99, -19.00, -23.42, -13.97, -24.07, -25.39, -24.83, -21.17, -18.06, 0.000, 0.000, 0.000, 03:59:46.433
229, -20.76, -26.58, -18.64, -22.26, -24.92, -14.84, -16.76, -22.08, -19.00, -23.42, -13.97, -24.07, -25.39, -24.83, -21.17, -18.06, 0.000, 0.000, 0.000, 03:59:46.438
230, -20.76, -26.58, -18.64, -22.26, -24.92, -14.84, -16.76, -22.08, -18.78, -23.54, -13.68, -24.07, -25.26, -24.90, -21.10, -18.10, 0.000, 0.000, 0.000, 03:59:46.441
231, -20.83, -26.64, -18.35, -21.97, -24.97, -15.13, -16.54, -21.95, -18.78, -23.54, -13.68, -24.07, -25.26, -24.90, -21.10, -18.10, 0.000, 0.000, 0.000, 03:59:46.445
232, -20.83, -26.64, -18.35, -21.97, -24.97, -15.13, -16.54, -21.95, -18.53, -23.40, -13.99, -23.98, -25.46, -24.63, -21.26, -17.95, 0.000, 0.000, 0.000, 03:59:46.450
233, -20.92, -26.60, -18.46, -21.90, -24.97, -15.07, -16.72, -22.06, -18.53, -23.40, -13.99, -23.98, -25.46, -24.63, -21.26, -17.95, 0.016, 0.946, 0.286, 03:59:46.453
234, -20.92, -26.60, -18.46, -21.90, -24.97, -15.07, -16.72, -22.06, -18.86, -23.54, -13.95, -23.94, -25.24, -24.74, -21.21, -18.22, 0.000, 0.000, 0.000, 03:59:46.458
235, -20.59, -26.67, -18.46, -21.99, -24.86, -15.09, -16.72, -22.08, -18.86, -23.54, -13.95, -23.94, -25.24, -24.74, -21.21, -18.22, 0.000, 0.000, 0.000, 03:59:46.461
236, -20.59, -26.67, -18.46, -21.99, -24.86, -15.09, -16.72, -22.08, -19.20, -23.40, -13.84, -24.05, -25.12, -24.70, -20.90, -18.22, 0.000, 0.000, 0.000, 03:59:46.466
237, -20.65, -26.69, -18.57, -22.08, -25.10, -15.04, -16.76, -22.17, -19.20, -23.40, -13.84, -24.05, -25.12, -24.70, -20.90, -18.22, 0.000, 0.000, 0.000, 03:59:46.470
238, -20.65, -26.69, -18.57, -22.08, -25.10, -15.04, -16.76, -22.17, -18.93, -23.47, -14.17, -23.94, -25.24, -24.92, -21.17, -17.93, 0.000, 0.000, 0.000, 03:59:46.473
239, -20.65, -26.60, -18.53, -21.93, -25.10, -14.82, -16.65, -21.86, -18.93, -23.47, -14.17, -23.94, -25.24, -24.92, -21.17, -17.93, 0.000, 0.000, 0.000, 03:59:46.477
240, -20.65, -26.60, -18.53, -21.93, -25.10, -14.82, -16.65, -21.86, -18.80, -23.49, -13.97, -23.80, -25.48, -24.74, -21.06, -18.06, 0.000, 0.000, 0.000, 03:59:46.482
241, -20.61, -26.58, -18.53, -21.93, -25.06, -14.95, -16.72, -22.02, -18.80, -23.49, -13.97, -23.80, -25.48, -24.74, -21.06, -18.06, 0.000, 0.000, 0.000, 03:59:46.487
242, -20.61, -26.58, -18.53, -21.93, -25.06, -14.95, -16.72, -22.02, -18.82, -23.42, -13.81, -23.92, -25.39, -24.92, -21.37, -18.13, 0.012, 0.942, 0.292, 03:59:46.490
243, -20.61, -26.60, -18.44, -22.13, -24.94, -14.86, -16.90, -22.24, -18.82, -23.42, -13.81, -23.92, -25.39, -24.92, -21.37, -18.13, 0.000, 0.000, 0.000, 03:59:46.494
244, -20.61, -26.60, -18.44, -22.13, -24.94, -14.86, -16.90, -22.24, -18.91, -23.38, -13.86, -23.87, -25.37, -24.88, -21.23, -18.15, 0.000, 0.000, 0.000, 03:59:46.497
245, -20.79, -26.60, -18.37, -21.99, -24.86, -15.07, -16.88, -22.35, -18.91, -23.38, -13.86, -23.87, -25.37, -24.88, -21.23, -18.15, 0.000, 0.000, 0.000, 03:59:46.501
246, -20.79, -26.60, -18.37, -21.99, -24.86, -15.07, -16.88, -22.35, -18.78, -23.25, -13.93, -23.98, -25.53, -24.70, -21.39, -17.99, 0.000, 0.000, 0.000, 03:59:46.504
247, -20.50, -26.60, -18.48, -22.06, -24.99, -15.04, -16.76, -22.26, -18.78, -23.25, -13.93, -23.98, -25.53, -24.70, -21.39, -17.99, 0.000, 0.000, 0.000, 03:59:46.509
248, -20.50, -26.60, -18.48, -22.06, -24.99, -15.04, -16.76, -22.26, -18.69, -23.51, -13.95, -24.05, -25.50, -24.61, -20.94, -17.99, 0.000, 0.000, 0.000, 03:59:46.514
249, -20.72, -26.67, -18.51, -22.15, -24.94, -14.89, -16.76, -22.15, -18.69, -23.51, -13.95, -24.05, -25.50, -24.61, -20.94, -17.99, 0.000, 0.000, 0.000, 03:59:46.517
250, -20.72, -26.67, -18.51, -22.15, -24.94, -14.89, -16.76, -22.15, -18.93, -23.51, -13.79, -24.01, -25.48, -24.77, -21.12, -18.08, 0.000, 0.000, 0.000, 03:59:46.521
251, -20.76, -26.58, -18.51, -21.99, -25.01, -14.84, -16.81, -22.06, -18.93, -23.51, -13.79, -24.01, -25.48, -24.77, -21.12, -18.08, 0.000, 0.000, 0.000, 03:59:46.525
252, -20.76, -26.58, -18.51, -21.99, -25.01, -14.84, -16.81, -22.06, -19.00, -23.67, -13.75, -24.03, -25.37, -24.79, -21.26, -18.19, 0.014, 0.948, 0.296, 03:59:46.528
253, -20.76, -26.69, -18.62, -22.11, -25.06, -14.89, -16.83, -22.28, -19.00, -23.67, -13.75, -24.03, -25.37, -24.79, -21.26, -18.19, 0.000, 0.000, 0.000, 03:59:46.533
254, -20.76, -26.69, -18.62, -22.11, -25.06, -14.89, -16.83, -22.28, -18.91, -23.45, -14.01, -23.94, -25.57, -24.56, -21.26, -17.99, 0.000, 0.000, 0.000, 03:59:46.537
255, -20.76, -26.58, -18.37, -22.04, -24.68, -15.09, -16.72, -22.22, -18.91, -23.45, -14.01, -23.94, -25.57, -24.56, -21.26, -17.99, 0.000, 0.000, 0.000, 03:59:46.542
0, -20.76, -26.58, -18.37, -22.04, -24.68, -15.09, -16.72, -22.22, -18.93, -23.40, -13.81, -24.03, -25.19, -25.10, -21.37, -17.99, 0.000, 0.000, 0.000, 03:59:46.545
1, -20.76, -26.80, -18.57, -22.06, -25.17, -14.93, -16.79, -22.08, -18.93, -23.40, -13.81, -24.03, -25.19, -25.10, -21.37, -17.99, 0.000, 0.000, 0.000, 03:59:46.549
2, -20.76, -26.80, -18.57, -22.06, -25.17, -14.93, -16.79, -22.08, -18.82, -23.27, -14.04, -24.01, -25.32, -24.92, -21.32, -17.97, 0.000, 0.000, 0.000, 03:59:46.552
3, -20.88, -26.53, -18.46, -22.15, -25.08, -14.75, -16.81, -22.24, -18.82, -23.27, -14.04, -24.01, -25.32, -24.92, -21.32, -17.97, 0.000, 0.000, 0.000, 03:59:46.558
4, -20.88, -26.53, -18.46, -22.15, -25.08, -14.75, -16.81, -22.24, -19.00, -23.36, -13.86, -24.10, -25.35, -24.65, -21.28, -18.06, 0.000, 0.000, 0.000, 03:59:46.562
5, -20.85, -26.64, -18.57, -22.13, -25.08, -14.98, -16.96, -22.15, -19.00, -23.36, -13.86, -24.10, -25.35, -24.65, -21.28, -18.06, 0.000, 0.000, 0.000, 03:59:46.566
6, -20.85, -26.64, -18.57, -22.13, -25.08, -14.98, -16.96, -22.15, -19.16, -23.36, -13.88, -23.89, -25.41, -24.99, -21.06, -17.79, 0.016, 0.944, 0.294, 03:59:46.569
7, -20.63, -26.78, -18.48, -22.02, -25.08, -15.02, -16.72, -22.04, -19.16, -23.36, -13.88, -23.89, -25.41, -24.99, -21.06, -17.79, 0.000, 0.000, 0.000, 03:59:46.574
8, -20.63, -26.78, -18.48, -22.02, -25.08, -15.02, -16.72, -22.04, -18.78, -23.42, -13.75, -23.94, -25.32, -24.79, -21.19, -17.79, 0.000, 0.000, 0.000, 03:59:46.576
9, -20.72, -26.55, -18.51, -22.17, -25.15, -15.02, -16.79, -22.17, -18.78, -23.42, -13.75, -23.94, -25.32, -24.79, -21.19, -17.79, 0.000, 0.000, 0.000, 03:59:46.581
10, -20.72, -26.55, -18.51, -22.17, -25.15, -15.02, -16.79, -22.17, -19.00, -23.51, -13.81, -24.12, -25.35, -24.72, -21.10, -17.95, 0.000, 0.000, 0.000, 03:59:46.585
11, -20.85, -26.60, -18.62, -22.22, -24.92, -15.02, -16.90, -22.04, -19.00, -23.51, -13.81, -24.12, -25.35, -24.72, -21.10, -17.95, 0.000, 0.000, 0.000, 03:59:46.588
12, -20.85, -26.60, -18.62, -22.22, -24.92, -15.02, -16.90, -22.04, -18.93, -23.47, -13.81, -24.01, -25.26, -24.77, -21.21, -17.90, 0.000, 0.000, 0.000, 03:59:46.594
13, -20.79, -26.42, -18.73, -22.08, -25.12, -14.84, -16.76, -22.08, -18.93, -23.47, -13.81, -24.01, -25.26, -24.77, -21.21, -17.90, 0.000, 0.000, 0.000, 03:59:46.597
14, -20.79, -26.42, -18.73, -22.08, -25.12, -14.84, -16.76, -22.08, -18.98, -23.47, -13.90, -23.98, -25.30, -24.86, -21.10, -18.06, 0.000, 0.000, 0.000, 03:59:46.602
15, -20.56, -26.60, -18.66, -21.99, -24.97, -15.18, -16.67, -22.06, -18.98, -23.47, -13.90, -23.98, -25.30, -24.86, -21.10, -18.06, 0.000, 0.000, 0.000, 03:59:46.605
16, -20.56, -26.60, -18.66, -21.99, -24.97, -15.18, -16.67, -22.06, -18.69, -23.29, -13.86, -24.14, -25.28, -24.77, -21.10, -17.99, 0.024, 0.948, 0.314, 03:59:46.608
17, -20.68, -26.82, -18.62, -21.82, -24.97, -14.95, -16.79, -22.11, -18.69, -23.29, -13.86, -24.14, -25.28, -24.77, -21.10, -17.99, 0.000, 0.000, 0.000, 03:59:46.613
18, -20.68, -26.82, -18.62, -21.82, -24.97, -14.95, -16.79, -22.11, -18.86, -23.27, -13.81, -23.92, -25.50, -24.83, -21.12, -18.06, 0.000, 0.000, 0.000, 03:59:46.616
19, -20.65, -26.58, -18.71, -22.17, -25.01, -14.89, -16.90, -21.99, -18.86, -23.27, -13.81, -23.92, -25.50, -24.83, -21.12, -18.06, 0.000, 0.000, 0.000, 03:59:46.621
20, -20.65, -26.58, -18.71, -22.17, -25.01, -14.89, -16.90, -21.99, -19.11, -23.38, -13.90, -23.74, -25.44, -24.83, -21.26, -17.90, 0.000, 0.000, 0.000, 03:59:46.626
21, -20.50, -26.55, -18.69, -22.08, -24.92, -14.89, -16.65, -22.04, -19.11, -23.38, -13.90, -23.74, -25.44, -24.83, -21.26, -17.90, 0.000, 0.000, 0.000, 03:59:46.629
22, -20.50, -26.55, -18.69, -22.08, -24.92, -14.89, -16.65, -22.04, -18.84, -23.45, -14.19, -24.05, -25.30, -24.81, -21.32, -18.13, 0.000, 0.000, 0.000, 03:59:46.633
23, -20.74, -26.49, -18.66, -22.15, -25.03, -15.00, -16.67, -22.04, -18.84, -23.45, -14.19, -24.05, -25.30, -24.81, -21.32, -18.13, 0.000, 0.000, 0.000, 03:59:46.636
24, -20.74, -26.49, -18.66, -22.15, -25.03, -15.00, -16.67, -22.04, -18.98, -23.60, -14.01, -24.36, -25.57, -24.74, -21.19, -17.97, 0.000, 0.000, 0.000, 03:59:46.641
25, -20.70, -26.42, -18.62, -21.97, -25.08, -15.13, -16.96, -21.90, -18.98, -23.60, -14.01, -24.36, -25.57, -24.74, -21.19, -17.97, 0.000, 0.000, 0.000, 03:59:46.647
26, -20.70, -26.42, -18.62, -21.97, -25.08, -15.13, -16.96, -21.90, -18.86, -23.56, -13.84, -24.23, -25.75, -24.88, -20.85, -17.81, 0.020, 0.946, 0.302, 03:59:46.649
27, -20.74, -26.44, -18.44, -22.06, -24.94, -14.93, -16.96, -22.04, -18.86, -23.56, -13.84, -24.23, -25.75, -24.88, -20.85, -17.81, 0.000, 0.000, 0.000, 03:59:46.654
28, -20.74, -26.44, -18.44, -22.06, -24.94, -14.93, -16.96, -22.04, -18.91, -23.47, -13.81, -23.85, -25.48, -24.72, -21.10, -18.10, 0.000, 0.000, 0.000, 03:59:46.657
29, -20.79, -26.44, -18.48, -22.15, -25.17, -14.91, -16.72, -22.04, -18.91, -23.47, -13.81, -23.85, -25.48, -24.72, -21.10, -18.10, 0.000, 0.000, 0.000, 03:59:46.660
30, -20.79, -26.44, -18.48, -22.15, -25.17, -14.91, -16.72, -22.04, -18.82, -23.34, -14.13, -24.01, -25.30, -24.79, -21.10, -18.33, 0.000, 0.000, 0.000, 03:59:46.665
31, -20.74, -26.53, -18.57, -22.24, -25.06, -15.22, -16.70, -21.99, -18.82, -23.34, -14.13, -24.01, -25.30, -24.79, -21.10, -18.33, 0.000, 0.000, 0.000, 03:59:46.668
32, -20.74, -26.53, -18.57, -22.24, -25.06, -15.22, -16.70, -21.99, -18.80, -23.36, -13.93, -24.12, -25.44, -24.88, -21.10, -18.06, 0.000, 0.000, 0.000, 03:59:46.673
33, -20.63, -26.58, -18.48, -22.13, -24.86, -14.89, -16.56, -21.97, -18.80, -23.36, -13.93, -24.12, -25.44, -24.88, -21.10, -18.06, 0.000, 0.000, 0.000, 03:59:46.677
34, -20.63, -26.58, -18.48, -22.13, -24.86, -14.89, -16.56, -21.97, -19.00, -23.31, -13.86, -24.05, -25.50, -24.72, -21.19, -18.10, 0.000, 0.000, 0.000, 03:59:46.682
35, -20.70, -26.53, -18.46, -22.17, -24.92, -14.91, -16.54, -21.88, -19.00, -23.31, -13.86, -24.05, -25.50, -24.72, -21.19, -18.10, 0.000, 0.000, 0.000, 03:59:46.684
36, -20.70, -26.53, -18.46, -22.17, -24.92, -14.91, -16.54, -21.88, -19.02, -23.60, -14.10, -24.01, -25.35, -24.86, -21.14, -17.95, 0.022, 0.936, 0.310, 03:59:46.689
37, -20.85, -26.84, -18.66, -22.13, -24.94, -14.77, -16.56, -22.04, -19.02, -23.60, -14.10, -24.01, -25.35, -24.86, -21.14, -17.95, 0.000, 0.000, 0.000, 03:59:46.694
38, -20.85, -26.84, -18.66, -22.13, -24.94, -14.77, -16.56, -22.04, -18.86, -23.67, -13.66, -24.01, -25.50, -24.86, -21.12, -18.13, 0.000, 0.000, 0.000, 03:59:46.698
39, -20.88, -26.60, -18.66, -22.20, -24.86, -14.77, -16.79, -22.15, -18.86, -23.67, -13.66, -24.01, -25.50, -24.86, -21.12, -18.13, 0.000, 0.000, 0.000, 03:59:46.701
40, -20.88, -26.60, -18.66, -22.20, -24.86, -14.77, -16.79, -22.15, -18.84, -23.38, -13.88, -23.87, -25.59, -25.08, -21.28, -18.10, 0.000, 0.000, 0.000, 03:59:46.705
41, -20.52, -26.76, -18.48, -22.13, -24.94, -14.95, -16.79, -22.22, -18.84, -23.38, -13.88, -23.87, -25.59, -25.08, -21.28, -18.10, 0.000, 0.000, 0.000, 03:59:46.709
42, -20.52, -26.76, -18.48, -22.13, -24.94, -14.95, -16.79, -22.22, -19.04, -23.47, -13.95, -24.01, -25.41, -24.81, -21.06, -18.17, 0.000, 0.000, 0.000, 03:59:46.713
43, -20.92, -26.55, -18.40, -22.02, -24.94, -14.91, -16.79, -22.17, -19.04, -23.47, -13.95, -24.01, -25.41, -24.81, -21.06, -18.17, 0.000, 0.000, 0.000, 03:59:46.716
44, -20.92, -26.55, -18.40, -22.02, -24.94, -14.91, -16.79, -22.17, -18.75, -23.49, -14.06, -24.03, -25.06, -24.94, -21.21, -18.24, 0.000, 0.000, 0.000, 03:59:46.721
45, -20.88, -26.64, -18.42, -22.17, -24.88, -14.95, -16.81, -21.95, -18.75, -23.49, -14.06, -24.03, -25.06, -24.94, -21.21, -18.24, 0.000, 0.000, 0.000, 03:59:46.725
46, -20.88, -26.64, -18.42, -22.17, -24.88, -14.95, -16.81, -21.95, -18.89, -23.34, -13.79, -23.83, -25.30, -24.70, -21.14, -18.24, 0.024, 0.956, 0.318, 03:59:46.729
47, -20.74, -26.40, -18.53, -22.11, -24.94, -14.80, -16.92, -21.97, -18.89, -23.34, -13.79, -23.83, -25.30, -24.70, -21.14, -18.24, 0.000, 0.000, 0.000, 03:59:46.733
48, -20.74, -26.40, -18.53, -22.11, -24.94, -14.80, -16.92, -21.97, -18.84, -23.29, -13.86, -23.96, -25.24, -24.97, -21.17, -18.13, 0.000, 0.000, 0.000, 03:59:46.736
49, -20.68, -26.49, -18.60, -22.26, -24.99, -14.69, -16.88, -22.04, -18.84, -23.29, -13.86, -23.96, -25.24, -24.97, -21.17, -18.13, 0.000, 0.000, 0.000, 03:59:46.740
50, -20.68, -26.49, -18.60, -22.26, -24.99, -14.69, -16.88, -22.04, -18.82, -23.47, -14.01, -24.03, -25.32, -24.94, -21.23, -18.06, 0.000, 0.000, 0.000, 03:59:46.745
51, -20.79, -26.51, -18.51, -22.13, -25.06, -15.00, -16.54, -22.20, -18.82, -23.47, -14.01, -24.03, -25.32, -24.94, -21.23, -18.06, 0.000, 0.000, 0.000, 03:59:46.749
52, -20.79, -26.51, -18.51, -22.13, -25.06, -15.00, -16.54, -22.20, -18.84, -23.47, -13.95, -23.96, -25.44, -24.83, -21.17, -18.06, 0.000, 0.000, 0.000, 03:59:46.753
53, -20.79, -26.73, -18.48, -22.15, -25.10, -14.91, -16.54, -21.97, -18.84, -23.47, -13.95, -23.96, -25.44, -24.83, -21.17, -18.06, 0.000, 0.000, 0.000, 03:59:46.756
54, -20.79, -26.73, -18.48, -22.15, -25.10, -14.91, -16.54, -21.97, -19.04, -23.47, -14.06, -24.03, -25.28, -24.94, -21.06, -17.81, 0.000, 0.000, 0.000, 03:59:46.761
55, -20.65, -26.55, -18.42, -22.11, -25.19, -15.04, -16.63, -22.04, -19.04, -23.47, -14.06, -24.03, -25.28, -24.94, -21.06, -17.81, 0.018, 0.956, 0.326, 03:59:46.766
56, -20.65, -26.55, -18.42, -22.11, -25.19, -15.04, -16.63, -22.04, -18.93, -23.36, -14.06, -24.03, -25.50, -24.77, -21.23, -17.88, 0.000, 0.000, 0.000, 03:59:46.769
57, -20.74, -26.58, -18.80, -21.79, -25.12, -15.02, -16.70, -22.13, -18.93, -23.36, -14.06, -24.03, -25.50, -24.77, -21.23, -17.88, 0.000, 0.000, 0.000, 03:59:46.773
58, -20.74, -26.58, -18.80, -21.79, -25.12, -15.02, -16.70, -22.13, -19.04, -23.25, -13.97, -24.03, -25.44, -24.88, -21.08, -18.17, 0.000, 0.000, 0.000, 03:59:46.776
59, -20.68, -26.40, -18.62, -22.08, -24.99, -14.98, -16.79, -22.02, -19.04, -23.25, -13.97, -24.03, -25.44, -24.88, -21.08, -18.17, 0.000, 0.000, 0.000, 03:59:46.781
60, -20.68, -26.40, -18.62, -22.08, -24.99, -14.98, -16.79, -22.02, -18.93, -23.56, -13.95, -23.92, -25.35, -24.77, -21.23, -18.08, 0.000, 0.000, 0.000, 03:59:46.785
61, -20.79, -26.42, -18.55, -22.02, -24.77, -14.80, -16.65, -21.95, -18.93, -23.56, -13.95, -23.92, -25.35, -24.77, -21.23, -18.08, 0.000, 0.000, 0.000, 03:59:46.789
62, -20.79, -26.42, -18.55, -22.02, -24.77, -14.80, -16.65, -21.95, -18.93, -23.49, -14.06, -23.96, -25.26, -24.92, -21.01, -18.15, 0.000, 0.000, 0.000, 03:59:46.792
63, -20.68, -26.58, -18.48, -22.22, -24.99, -14.98, -16.65, -21.99, -18.93, -23.49, -14.06, -23.96, -25.26, -24.92, -21.01, -18.15, 0.000, 0.000, 0.000, 03:59:46.796
64, -20.68, -26.58, -18.48, -22.22, -24.99, -14.98, -16.65, -21.99, -19.11, -23.51, -13.68, -24.10, -25.48, -24.90, -21.17, -18.04, 0.000, 0.000, 0.000, 03:59:46.800
65, -20.81, -26.64, -18.37, -22.15, -25.24, -14.73, -16.76, -22.06, -19.11, -23.51, -13.68, -24.10, -25.48, -24.90, -21.17, -18.04, 0.012, 0.944, 0.310, 03:59:46.805
66, -20.81, -26.64, -18.37, -22.15, -25.24, -14.73, -16.76, -22.06, -18.89, -23.51, -13.95, -23.98, -25.19, -24.92, -21.26, -18.04, 0.000, 0.000, 0.000, 03:59:46.809
67, -20.74, -26.62, -18.44, -21.95, -24.97, -14.95, -16.96, -22.08, -18.89, -23.51, -13.95, -23.98, -25.19, -24.92, -21.26, -18.04, 0.000, 0.000, 0.000, 03:59:46.814
68, -20.74, -26.62, -18.44, -21.95, -24.97, -14.95, -16.96, -22.08, -18.78, -23.49, -13.97, -23.78, -25.32, -24.90, -21.19, -18.04, 0.000, 0.000, 0.000, 03:59:46.819
69, -20.81, -26.71, -18.35, -21.97, -25.01, -14.89, -16.90, -22.17, -18.78, -23.49, -13.97, -23.78, -25.32, -24.90, -21.19, -18.04, 0.000, 0.000, 0.000, 03:59:46.822
70, -20.81, -26.71, -18.35, -21.97, -25.01, -14.89, -16.90, -22.17, -18.86, -23.40, -13.95, -23.83, -25.48, -24.94, -20.99, -18.04, 0.000, 0.000, 0.000, 03:59:46.825
71, -20.92, -26.69, -18.71, -22.08, -24.97, -14.80, -16.79, -21.95, -18.86, -23.40, -13.95, -23.83, -25.48, -24.94, -20.99, -18.04, 0.000, 0.000, 0.000, 03:59:46.829
72, -20.92, -26.69, -18.71, -22.08, -24.97, -14.80, -16.79, -21.95, -19.09, -23.34, -13.93, -24.16, -24.99, -24.77, -21.01, -18.08, 0.000, 0.000, 0.000, 03:59:46.833
73, -20.74, -26.62, -18.60, -22.13, -24.86, -14.91, -16.88, -22.02, -19.09, -23.34, -13.93, -24.16, -24.99, -24.77, -21.01, -18.08, 0.000, 0.000, 0.000, 03:59:46.837
74, -20.74, -26.62, -18.60, -22.13, -24.86, -14.91, -16.88, -22.02, -18.82, -23.31, -13.88, -24.27, -25.24, -24.83, -21.23, -17.99, 0.000, 0.000, 0.000, 03:59:46.841
75, -20.74, -26.49, -18.53, -22.08, -25.10, -15.09, -17.03, -22.17, -18.82, -23.31, -13.88, -24.27, -25.24, -24.83, -21.23, -17.99, 0.020, 0.956, 0.328, 03:59:46.845
76, -20.74, -26.49, -18.53, -22.08, -25.10, -15.09, -17.03, -22.17, -18.86, -23.47, -13.95, -23.85, -25.32, -25.06, -21.19, -17.88, 0.000, 0.000, 0.000, 03:59:46.848
77, -20.59, -26.67, -18.48, -22.13, -24.92, -14.86, -16.72, -22.37, -18.86, -23.47, -13.95, -23.85, -25.32, -25.06, -21.19, -17.88, 0.000, 0.000, 0.000, 03:59:46.852
78, -20.59, -26.67, -18.48, -22.13, -24.92, -14.86, -16.72, -22.37, -19.07, -23.42, -13.90, -23.74, -25.26, -24.86, -21.12, -18.35, 0.000, 0.000, 0.000, 03:59:46.856
79, -20.81, -26.31, -18.42, -22.22, -24.94, -15.02, -16.50, -21.93, -19.07, -23.42, -13.90, -23.74, -25.26, -24.86, -21.12, -18.35, 0.000, 0.000, 0.000, 03:59:46.860
80, -20.81, -26.31, -18.42, -22.22, -24.94, -15.02, -16.50, -21.93, -18.84, -23.34, -13.84, -23.92, -25.50, -24.86, -21.23, -18.08, 0.000, 0.000, 0.000, 03:59:46.865
81, -20.65, -26.51, -18.37, -21.99, -24.97, -15.07, -16.70, -22.15, -18.84, -23.34, -13.84, -23.92, -25.50, -24.86, -21.23, -18.08, 0.000, 0.000, 0.000, 03:59:46.869
82, -20.65, -26.51, -18.37, -21.99, -24.97, -15.07, -16.70, -22.15, -18.93, -23.47, -13.84, -23.94, -25.57, -24.86, -21.06, -17.93, 0.000, 0.000, 0.000, 03:59:46.872
83, -20.74, -26.51, -18.55, -22.08, -24.88, -15.04, -16.70, -22.15, -18.93, -23.47, -13.84, -23.94, -25.57, -24.86, -21.06, -17.93, 0.000, 0.000, 0.000, 03:59:46.876
84, -20.74, -26.51, -18.55, -22.08, -24.88, -15.04, -16.70, -22.15, -18.66, -23.58, -13.99, -23.83, -25.39, -24.86, -21.21, -17.99, 0.000, 0.000, 0.000, 03:59:46.880
85, -20.99, -26.40, -18.57, -22.20, -24.83, -15.07, -16.67, -21.95, -18.66, -23.58, -13.99, -23.83, -25.39, -24.86, -21.21, -17.99, 0.012, 0.952, 0.310, 03:59:46.884
86, -20.99, -26.40, -18.57, -22.20, -24.83, -15.07, -16.67, -21.95, -18.78, -23.27, -13.97, -23.98, -25.39, -24.94, -21.17, -18.10, 0.000, 0.000, 0.000, 03:59:46.888
87, -20.70, -26.31, -18.53, -22.06, -25.06, -15.00, -16.83, -21.95, -18.78, -23.27, -13.97, -23.98, -25.39, -24.94, -21.17, -18.10, 0.000, 0.000, 0.000, 03:59:46.893
88, -20.70, -26.31, -18.53, -22.06, -25.06, -15.00, -16.83, -21.95, -18.78, -23.34, -14.08, -23.96, -25.26, -24.79, -21.14, -18.06, 0.000, 0.000, 0.000, 03:59:46.898
89, -20.70, -26.58, -18.48, -22.17, -24.86, -14.84, -16.79, -21.97, -18.78, -23.34, -14.08, -23.96, -25.26, -24.79, -21.14, -18.06, 0.000, 0.000, 0.000, 03:59:46.900
90, -20.70, -26.58, -18.48, -22.17, -24.86, -14.84, -16.79, -21.97, -18.66, -23.34, -13.97, -23.89, -25.44, -24.86, -21.08, -17.95, 0.000, 0.000, 0.000, 03:59:46.905
91, -20.72, -26.62, -18.57, -22.13, -25.19, -14.69, -16.56, -22.08, -18.66, -23.34, -13.97, -23.89, -25.44, -24.86, -21.08, -17.95, 0.000, 0.000, 0.000, 03:59:46.908
92, -20.72, -26.62, -18.57, -22.13, -25.19, -14.69, -16.56, -22.08, -18.91, -23.49, -14.06, -23.83, -25.37, -24.88, -21.12, -17.97, 0.000, 0.000, 0.000, 03:59:46.912
93, -20.88, -26.44, -18.48, -22.02, -24.92, -15.00, -16.67, -22.22, -18.91, -23.49, -14.06, -23.83, -25.37, -24.88, -21.12, -17.97, 0.000, 0.000, 0.000, 03:59:46.916
94, -20.88, -26.44, -18.48, -22.02, -24.92, -15.00, -16.67, -22.22, -18.93, -23.56, -13.81, -23.87, -25.08, -24.83, -21.06, -18.02, 0.000, 0.000, 0.000, 03:59:46.921
95, -20.65, -26.42, -18.51, -22.06, -25.08, -14.86, -16.85, -22.22, -18.93, -23.56, -13.81, -23.87, -25.08, -24.83, -21.06, -18.02, 0.012, 0.944, 0.298, 03:59:46.926
96, -20.65, -26.42, -18.51, -22.06, -25.08, -14.86, -16.85, -22.22, -18.95, -23.34, -13.84, -23.89, -25.26, -24.92, -20.88, -18.17, 0.000, 0.000, 0.000, 03:59:46.928
97, -20.65, -26.67, -18.60, -22.02, -24.99, -14.89, -16.85, -21.95, -18.95, -23.34, -13.84, -23.89, -25.26, -24.92, -20.88, -18.17, 0.000, 0.000, 0.000, 03:59:46.933
98, -20.65, -26.67, -18.60, -22.02, -24.99, -14.89, -16.85, -21.95, -18.98, -23.56, -13.81, -23.96, -25.41, -24.72, -21.30, -18.15, 0.000, 0.000, 0.000, 03:59:46.936
99, -20.83, -26.55, -18.69, -22.22, -24.94, -15.09, -16.90, -22.08, -18.98, -23.56, -13.81, -23.96, -25.41, -24.72, -21.30, -18.15, 0.000, 0.000, 0.000, 03:59:46.940
100, -20.83, -26.55, -18.69, -22.22, -24.94, -15.09, -16.90, -22.08, -18.91, -23.34, -13.84, -23.92, -25.55, -24.74, -21.17, -18.06, 0.000, 0.000, 0.000, 03:59:46.944
101, -20.63, -26.55, -18.31, -22.24, -25.06, -15.13, -16.74, -21.99, -18.91, -23.34, -13.84, -23.92, -25.55, -24.74, -21.17, -18.06, 0.000, 0.000, 0.000, 03:59:46.949
102, -20.63, -26.55, -18.31, -22.24, -25.06, -15.13, -16.74, -21.99, -18.89, -23.25, -13.84, -24.14, -25.39, -24.70, -21.23, -18.10, 0.000, 0.000, 0.000, 03:59:46.952
103, -20.81, -26.60, -18.42, -22.20, -25.01, -15.11, -16.76, -22.33, -18.89, -23.25, -13.84, -24.14, -25.39, -24.70, -21.23, -18.10, 0.000, 0.000, 0.000, 03:59:46.957
104, -20.81, -26.60, -18.42, -22.20, -25.01, -15.11, -16.76, -22.33, -18.82, -23.56, -13.86, -24.18, -25.39, -24.81, -21.30, -17.99, 0.000, 0.000, 0.000, 03:59:46.961
105, -20.70, -26.49, -18.28, -22.17, -25.01, -14.77, -16.56, -22.24, -18.82, -23.56, -13.86, -24.18, -25.39, -24.81, -21.30, -17.99, 0.006, 0.938, 0.286, 03:59:46.964
106, -20.70, -26.49, -18.28, -22.17, -25.01, -14.77, -16.56, -22.24, -18.93, -23.51, -13.86, -23.85, -25.26, -24.90, -21.08, -17.99, 0.000, 0.000, 0.000, 03:59:46.968
107, -20.72, -26.46, -18.37, -22.26, -24.97, -14.91, -16.67, -22.08, -18.93, -23.51, -13.86, -23.85, -25.26, -24.90, -21.08, -17.99, 0.000, 0.000, 0.000, 03:59:46.972
108, -20.72, -26.46, -18.37, -22.26, -24.97, -14.91, -16.67, -22.08, -18.84, -23.65, -13.66, -23.80, -25.19, -24.83, -21.06, -18.02, 0.000, 0.000, 0.000, 03:59:46.977
109, -20.72, -26.55, -18.48, -21.97, -24.88, -14.98, -16.63, -22.31, -18.84, -23.65, -13.66, -23.80, -25.19, -24.83, -21.06, -18.02, 0.000, 0.000, 0.000, 03:59:46.981
110, -20.72, -26.55, -18.48, -21.97, -24.88, -14.98, -16.63, -22.31, -18.93, -23.42, -13.99, -24.07, -25.41, -24.59, -21.17, -17.99, 0.000, 0.000, 0.000, 03:59:46.984
111, -20.85, -26.60, -18.71, -21.99, -24.86, -15.04, -16.67, -22.04, -18.93, -23.42, -13.99, -24.07, -25.41, -24.59, -21.17, -17.99, 0.000, 0.000, 0.000, 03:59:46.988
112, -20.85, -26.60, -18.71, -21.99, -24.86, -15.04, -16.67, -22.04, -18.84, -23.34, -13.84, -23.85, -25.26, -24.45, -21.08, -18.06, 0.000, 0.000, 0.000, 03:59:46.992
113, -21.08, -26.73, -18.51, -21.97, -24.72, -14.95, -16.79, -22.17, -18.84, -23.34, -13.84, -23.85, -25.26, -24.45, -21.08, -18.06, 0.000, 0.000, 0.000, 03:59:46.996
114, -21.08, -26.73, -18.51, -21.97, -24.72, -14.95, -16.79, -22.17, -18.84, -23.31, -13.93, -23.89, -25.44, -24.77, -21.17, -18.24, 0.004, 0.940, 0.290, 03:59:47.000
115, -20.81, -26.67, -18.53, -21.95, -25.01, -15.13, -16.65, -22.28, -18.84, -23.31, -13.93, -23.89, -25.44, -24.77, -21.17, -18.24, 0.000, 0.000, 0.000, 03:59:47.005
116, -20.81, -26.67, -18.53, -21.95, -25.01, -15.13, -16.65, -22.28, -18.91, -23.47, -13.90, -24.03, -25.41, -25.01, -21.28, -18.37, 0.000, 0.000, 0.000, 03:59:47.009
117, -20.76, -26.60, -18.60, -22.04, -25.03, -14.80, -16.85, -22.11, -18.91, -23.47, -13.90, -24.03, -25.41, -25.01, -21.28, -18.37, 0.000, 0.000, 0.000, 03:59:47.011
118, -20.76, -26.60, -18.60, -22.04, -25.03, -14.80, -16.85, -22.11, -18.89, -23.47, -14.06, -23.92, -25.46, -25.06, -21.26, -18.04, 0.000, 0.000, 0.000, 03:59:47.016
119, -20.88, -26.49, -18.46, -22.15, -25.30, -14.95, -16.83, -22.26, -18.89, -23.47, -14.06, -23.92, -25.46, -25.06, -21.26, -18.04, 0.000, 0.000, 0.000, 03:59:47.020
120, -20.88, -26.49, -18.46, -22.15, -25.30, -14.95, -16.83, -22.26, -18.95, -23.38, -14.01, -24.05, -25.24, -24.79, -21.17, -18.10, 0.000, 0.000, 0.000, 03:59:47.025
121, -20.83, -26.44, -18.55, -21.97, -25.15, -14.62, -16.81, -22.04, -18.95, -23.38, -14.01, -24.05, -25.24, -24.79, -21.17, -18.10, 0.000, 0.000, 0.000, 03:59:47.028
122, -20.83, -26.44, -18.55, -21.97, -25.15, -14.62, -16.81, -22.04, -18.75, -23.29, -14.01, -24.05, -25.10, -24.68, -21.26, -18.04, 0.000, 0.000, 0.000, 03:59:47.033
123, -20.74, -26.69, -18.51, -21.97, -25.12, -14.91, -16.72, -22.06, -18.75, -23.29, -14.01, -24.05, -25.10, -24.68, -21.26, -18.04, 0.000, 0.000, 0.000, 03:59:47.037
124, -20.74, -26.69, -18.51, -21.97, -25.12, -14.91, -16.72, -22.06, -18.91, -23.60, -13.95, -24.07, -25.30, -24.65, -21.32, -18.04, 0.020, 0.956, 0.308, 03:59:47.039
125, -20.70, -26.62, -18.55, -22.11, -25.12, -14.93, -16.67, -21.99, -18.91, -23.60, -13.95, -24.07, -25.30, -24.65, -21.32, -18.04, 0.000, 0.000, 0.000, 03:59:47.045
126, -20.70, -26.62, -18.55, -22.11, -25.12, -14.93, -16.67, -21.99, -18.86, -23.38, -13.86, -24.01, -25.46, -24.83, -21.28, -18.02, 0.000, 0.000, 0.000, 03:59:47.048
127, -20.61, -26.58, -18.48, -22.11, -24.86, -15.13, -16.76, -22.22, -18.86, -23.38, -13.86, -24.01, -25.46, -24.83, -21.28, -18.02, 0.000, 0.000, 0.000, 03:59:47.052
128, -20.61, -26.58, -18.48, -22.11, -24.86, -15.13, -16.76, -22.22, -19.07, -23.36, -13.90, -24.05, -25.26, -24.81, -21.19, -18.10, 0.000, 0.000, 0.000, 03:59:47.059
129, -20.65, -26.69, -18.35, -21.82, -25.06, -14.98, -16.58, -21.95, -19.07, -23.36, -13.90, -24.05, -25.26, -24.81, -21.19, -18.10, 0.000, 0.000, 0.000, 03:59:47.061
130, -20.65, -26.69, -18.35, -21.82, -25.06, -14.98, -16.58, -21.95, -18.98, -23.27, -13.90, -23.87, -25.48, -24.92, -21.17, -17.97, 0.000, 0.000, 0.000, 03:59:47.064
131, -20.74, -26.55, -18.60, -22.17, -25.17, -15.04, -16.90, -22.08, -18.98, -23.27, -13.90, -23.87, -25.48, -24.92, -21.17, -17.97, 0.000, 0.000, 0.000, 03:59:47.068
132, -20.74, -26.55, -18.60, -22.17, -25.17, -15.04, -16.90, -22.08, -18.84, -23.29, -13.77, -23.80, -25.37, -24.90, -21.17, -18.10, 0.000, 0.000, 0.000, 03:59:47.073
133, -20.81, -26.46, -18.66, -22.15, -25.15, -14.84, -16.81, -21.97, -18.84, -23.29, -13.77, -23.80, -25.37, -24.90, -21.17, -18.10, 0.000, 0.000, 0.000, 03:59:47.076
134, -20.81, -26.46, -18.66, -22.15, -25.15, -14.84, -16.81, -21.97, -19.02, -23.42, -13.93, -23.92, -25.35, -24.92, -21.12, -17.84, 0.016, 0.948, 0.316, 03:59:47.080
135, -20.74, -26.64, -18.37, -22.11, -24.74, -14.89, -16.85, -22.04, -19.02, -23.42, -13.93, -23.92, -25.35, -24.92, -21.12, -17.84, 0.000, 0.000, 0.000, 03:59:47.084
136, -20.74, -26.64, -18.37, -22.11, -24.74, -14.89, -16.85, -22.04, -18.60, -23.42, -14.06, -23.92, -25.15, -24.72, -21.03, -18.13, 0.000, 0.000, 0.000, 03:59:47.087
137, -20.88, -26.53, -18.28, -22.04, -25.06, -14.95, -16.63, -22.06, -18.60, -23.42, -14.06, -23.92, -25.15, -24.72, -21.03, -18.13, 0.000, 0.000, 0.000, 03:59:47.091
138, -20.88, -26.53, -18.28, -22.04, -25.06, -14.95, -16.63, -22.06, -18.75, -23.45, -14.06, -23.92, -25.24, -24.79, -21.12, -18.04, 0.000, 0.000, 0.000, 03:59:47.095
139, -20.85, -26.55, -18.53, -22.17, -25.03, -15.02, -16.83, -22.13, -18.75, -23.45, -14.06, -23.92, -25.24, -24.79, -21.12, -18.04, 0.000, 0.000, 0.000, 03:59:47.100
140, -20.85, -26.55, -18.53, -22.17, -25.03, -15.02, -16.83, -22.13, -18.75, -23.38, -14.04, -24.01, -25.06, -24.70, -21.21, -17.95, 0.000, 0.000, 0.000, 03:59:47.105
141, -20.54, -26.62, -18.44, -22.04, -25.01, -14.75, -16.81, -22.24, -18.75, -23.38, -14.04, -24.01, -25.06, -24.70, -21.21, -17.95, 0.000, 0.000, 0.000, 03:59:47.108
142, -20.54, -26.62, -18.44, -22.04, -25.01, -14.75, -16.81, -22.24, -18.84, -23.29, -13.88, -23.87, -25.28, -24.68, -21.10, -17.93, 0.000, 0.000, 0.000, 03:59:47.112
143, -20.70, -26.64, -18.55, -22.17, -24.77, -14.86, -16.76, -22.20, -18.84, -23.29, -13.88, -23.87, -25.28, -24.68, -21.10, -17.93, 0.000, 0.000, 0.000, 03:59:47.117
144, -20.70, -26.64, -18.55, -22.17, -24.77, -14.86, -16.76, -22.20, -18.78, -23.22, -13.99, -23.94, -25.19, -24.56, -21.35, -18.10, 0.014, 0.946, 0.302, 03:59:47.121
145, -20.81, -26.71, -18.37, -22.08, -24.83, -14.71, -16.65, -21.97, -18.78, -23.22, -13.99, -23.94, -25.19, -24.56, -21.35, -18.10, 0.000, 0.000, 0.000, 03:59:47.125
146, -20.81, -26.71, -18.37, -22.08, -24.83, -14.71, -16.65, -21.97, -19.02, -23.58, -13.93, -24.12, -25.50, -24.92, -21.44, -18.06, 0.000, 0.000, 0.000, 03:59:47.128
147, -20.65, -26.51, -18.48, -22.17, -24.90, -14.82, -16.88, -22.06, -19.02, -23.58, -13.93, -24.12, -25.50, -24.92, -21.44, -18.06, 0.000, 0.000, 0.000, 03:59:47.132
148, -20.65, -26.51, -18.48, -22.17, -24.90, -14.82, -16.88, -22.06, -18.91, -23.60, -13.75, -24.18, -25.37, -24.65, -21.14, -18.26, 0.000, 0.000, 0.000, 03:59:47.137
149, -20.63, -26.42, -18.53, -22.26, -24.99, -14.82, -16.85, -22.20, -18.91, -23.60, -13.75, -24.18, -25.37, -24.65, -21.14, -18.26, 0.000, 0.000, 0.000, 03:59:47.139
150, -20.63, -26.42, -18.53, -22.26, -24.99, -14.82, -16.85, -22.20, -18.89, -23.67, -13.75, -23.98, -25.44, -24.81, -21.26, -18.02, 0.000, 0.000, 0.000, 03:59:47.144
151, -20.61, -26.46, -18.80, -22.04, -25.03, -14.82, -16.90, -22.22, -18.89, -23.67, -13.75, -23.98, -25.44, -24.81, -21.26, -18.02, 0.000, 0.000, 0.000, 03:59:47.147
152, -20.61, -26.46, -18.80, -22.04, -25.03, -14.82, -16.90, -22.22, -19.02, -23.51, -13.88, -24.03, -25.32, -24.81, -21.10, -17.95, 0.000, 0.000, 0.000, 03:59:47.152
153, -20.85, -26.46, -18.75, -22.22, -25.08, -14.77, -16.63, -22.04, -19.02, -23.51, -13.88, -24.03, -25.32, -24.81, -21.10, -17.95, 0.000, 0.000, 0.000, 03:59:47.155
154, -20.85, -26.46, -18.75, -22.22, -25.08, -14.77, -16.63, -22.04, -18.98, -23.40, -13.99, -23.92, -25.28, -24.72, -20.94, -17.95, 0.020, 0.956, 0.310, 03:59:47.160
155, -20.92, -26.67, -18.64, -22.17, -24.92, -14.91, -16.90, -21.88, -18.98, -23.40, -13.99, -23.92, -25.28, -24.72, -20.94, -17.95, 0.000, 0.000, 0.000, 03:59:47.164
156, -20.92, -26.67, -18.64, -22.17, -24.92, -14.91, -16.90, -21.88, -18.86, -23.47, -13.75, -23.87, -25.30, -24.90, -21.23, -17.99, 0.000, 0.000, 0.000, 03:59:47.167
157, -20.76, -26.73, -18.53, -21.86, -24.88, -14.91, -16.74, -22.08, -18.86, -23.47, -13.75, -23.87, -25.30, -24.90, -21.23, -17.99, 0.000, 0.000, 0.000, 03:59:47.172
158, -20.76, -26.73, -18.53, -21.86, -24.88, -14.91, -16.74, -22.08, -18.98, -23.38, -13.68, -23.92, -25.21, -24.88, -21.06, -17.90, 0.000, 0.000, 0.000, 03:59:47.175
159, -20.68, -26.62, -18.57, -22.15, -24.92, -14.91, -16.63, -22.11, -18.98, -23.38, -13.68, -23.92, -25.21, -24.88, -21.06, -17.90, 0.000, 0.000, 0.000, 03:59:47.179
160, -20.68, -26.62, -18.57, -22.15, -24.92, -14.91, -16.63, -22.11, -19.00, -23.69, -13.95, -24.01, -25.17, -24.65, -21.01, -18.04, 0.000, 0.000, 0.000, 03:59:47.184
161, -20.52, -26.58, -18.62, -22.06, -24.90, -14.98, -16.76, -22.11, -19.00, -23.69, -13.95, -24.01, -25.17, -24.65, -21.01, -18.04, 0.000, 0.000, 0.000, 03:59:47.189
162, -20.52, -26.58, -18.62, -22.06, -24.90, -14.98, -16.76, -22.11, -18.78, -23.63, -13.93, -23.83, -25.30, -24.77, -21.23, -17.95, 0.000, 0.000, 0.000, 03:59:47.193
163, -20.54, -26.64, -18.62, -22.28, -24.99, -14.86, -16.74, -21.95, -18.78, -23.63, -13.93, -23.83, -25.30, -24.77, -21.23, -17.95, 0.000, 0.000, 0.000, 03:59:47.195
164, -20.54, -26.64, -18.62, -22.28, -24.99, -14.86, -16.74, -21.95, -18.89, -23.36, -14.13, -24.05, -25.35, -24.99, -21.32, -17.95, 0.016, 0.940, 0.302, 03:59:47.200
165, -20.70, -26.53, -18.69, -22.13, -24.99, -15.13, -16.56, -22.11, -18.89, -23.36, -14.13, -24.05, -25.35, -24.99, -21.32, -17.95, 0.000, 0.000, 0.000, 03:59:47.203
166, -20.70, -26.53, -18.69, -22.13, -24.99, -15.13, -16.56, -22.11, -18.93, -23.47, -14.13, -23.98, -25.44, -24.77, -21.17, -18.19, 0.000, 0.000, 0.000, 03:59:47.207
167, -20.79, -26.49, -18.62, -22.06, -25.06, -15.02, -16.67, -22.06, -18.93, -23.47, -14.13, -23.98, -25.44, -24.77, -21.17, -18.19, 0.000, 0.000, 0.000, 03:59:47.212
168, -20.79, -26.49, -18.62, -22.06, -25.06, -15.02, -16.67, -22.06, -19.11, -23.31, -14.01, -24.01, -25.50, -24.77, -21.08, -18.15, 0.000, 0.000, 0.000, 03:59:47.217
169, -20.92, -26.53, -18.53, -22.24, -25.06, -14.89, -16.76, -22.15, -19.11, -23.31, -14.01, -24.01, -25.50, -24.77, -21.08, -18.15, 0.000, 0.000, 0.000, 03:59:47.220
170, -20.92, -26.53, -18.53, -22.24, -25.06, -14.89, -16.76, -22.15, -18.84, -23.36, -14.01, -24.05, -25.26, -24.88, -21.28, -18.17, 0.000, 0.000, 0.000, 03:59:47.225
171, -20.79, -26.60, -18.48, -22.22, -25.15, -14.98, -16.79, -22.15, -18.84, -23.36, -14.01, -24.05, -25.26, -24.88, -21.28, -18.17, 0.000, 0.000, 0.000, 03:59:47.227
172, -20.79, -26.60, -18.48, -22.22, -25.15, -14.98, -16.79, -22.15, -18.80, -23.56, -14.06, -23.80, -25.28, -24.88, -21.26, -18.10, 0.000, 0.000, 0.000, 03:59:47.232
173, -21.01, -26.55, -18.57, -21.99, -25.03, -14.75, -16.79, -22.17, -18.80, -23.56, -14.06, -23.80, -25.28, -24.88, -21.26, -18.10, 0.020, 0.938, 0.286, 03:59:47.235
174, -21.01, -26.55, -18.57, -21.99, -25.03, -14.75, -16.79, -22.17, -18.91, -23.31, -13.86, -23.83, -25.48, -24.88, -21.12, -18.04, 0.000, 0.000, 0.000, 03:59:47.240
175, -20.72, -26.55, -18.66, -22.24, -25.01, -14.95, -16.72, -22.33, -18.91, -23.31, -13.86, -23.83, -25.48, -24.88, -21.12, -18.04, 0.000, 0.000, 0.000, 03:59:47.244
176, -20.72, -26.55, -18.66, -22.24, -25.01, -14.95, -16.72, -22.33, -18.91, -23.65, -13.75, -23.94, -25.17, -24.72, -21.19, -18.08, 0.000, 0.000, 0.000, 03:59:47.248
177, -20.68, -26.46, -18.46, -22.04, -24.99, -14.84, -16.83, -22.26, -18.91, -23.65, -13.75, -23.94, -25.17, -24.72, -21.19, -18.08, 0.000, 0.000, 0.000, 03:59:47.250
178, -20.68, -26.46, -18.46, -22.04, -24.99, -14.84, -16.83, -22.26, -18.93, -23.63, -13.75, -23.92, -25.24, -24.74, -21.21, -17.93, 0.000, 0.000, 0.000, 03:59:47.256
179, -20.74, -26.46, -18.55, -22.28, -24.79, -14.77, -16.83, -22.22, -18.93, -23.63, -13.75, -23.92, -25.24, -24.74, -21.21, -17.93, 0.000, 0.000, 0.000, 03:59:47.260
180, -20.74, -26.46, -18.55, -22.28, -24.79, -14.77, -16.83, -22.22, -18.82, -23.25, -13.90, -24.03, -25.15, -24.81, -21.35, -18.13, 0.000, 0.000, 0.000, 03:59:47.263
181, -20.85, -26.60, -18.62, -22.15, -24.65, -14.82, -16.70, -22.04, -18.82, -23.25, -13.90, -24.03, -25.15, -24.81, -21.35, -18.13, 0.000, 0.000, 0.000, 03:59:47.268
182, -20.85, -26.60, -18.62, -22.15, -24.65, -14.82, -16.70, -22.04, -18.80, -23.34, -13.88, -24.25, -25.28, -24.59, -21.28, -17.99, 0.000, 0.000, 0.000, 03:59:47.271
183, -20.68, -26.44, -18.46, -22.11, -24.97, -14.91, -16.63, -22.06, -18.80, -23.34, -13.88, -24.25, -25.28, -24.59, -21.28, -17.99, 0.014, 0.936, 0.280, 03:59:47.276
184, -20.68, -26.44, -18.46, -22.11, -24.97, -14.91, -16.63, -22.06, -18.91, -23.36, -13.97, -24.03, -25.44, -24.94, -21.44, -17.90, 0.000, 0.000, 0.000, 03:59:47.278
185, -20.63, -26.71, -18.60, -22.17, -24.90, -15.00, -16.58, -22.20, -18.91, -23.36, -13.97, -24.03, -25.44, -24.94, -21.44, -17.90, 0.000, 0.000, 0.000, 03:59:47.283
186, -20.63, -26.71, -18.60, -22.17, -24.90, -15.00, -16.58, -22.20, -18.78, -23.54, -13.95, -24.12, -25.41, -25.08, -21.35, -18.02, 0.000, 0.000, 0.000, 03:59:47.288
187, -20.81, -26.71, -18.60, -22.08, -24.97, -14.89, -16.58, -22.28, -18.78, -23.54, -13.95, -24.12, -25.41, -25.08, -21.35, -18.02, 0.000, 0.000, 0.000, 03:59:47.291
188, -20.81, -26.71, -18.60, -22.08, -24.97, -14.89, -16.58, -22.28, -19.02, -23.40, -13.75, -23.72, -25.39, -24.79, -21.17, -17.90, 0.000, 0.000, 0.000, 03:59:47.296
189, -20.61, -26.46, -18.69, -22.24, -25.01, -14.89, -16.74, -22.33, -19.02, -23.40, -13.75, -23.72, -25.39, -24.79, -21.17, -17.90, 0.000, 0.000, 0.000, 03:59:47.301
190, -20.61, -26.46, -18.69, -22.24, -25.01, -14.89, -16.74, -22.33, -19.02, -23.34, -13.88, -23.92, -25.35, -24.86, -21.23, -18.08, 0.000, 0.000, 0.000, 03:59:47.303
191, -20.70, -26.51, -18.64, -22.15, -24.92, -14.86, -16.72, -22.02, -19.02, -23.34, -13.88, -23.92, -25.35, -24.86, -21.23, -18.08, 0.000, 0.000, 0.000, 03:59:47.307
192, -20.70, -26.51, -18.64, -22.15, -24.92, -14.86, -16.72, -22.02, -18.98, -23.56, -13.81, -23.72, -25.44, -24.92, -21.14, -18.04, 0.000, 0.000, 0.000, 03:59:47.311
193, -20.88, -26.51, -18.57, -21.88, -25.06, -14.86, -16.85, -22.13, -18.98, -23.56, -13.81, -23.72, -25.44, -24.92, -21.14, -18.04, 0.020, 0.938, 0.278, 03:59:47.316
194, -20.88, -26.51, -18.57, -21.88, -25.06, -14.86, -16.85, -22.13, -18.82, -23.31, -13.99, -23.89, -25.46, -24.81, -21.10, -18.02, 0.000, 0.000, 0.000, 03:59:47.320
195, -20.83, -26.60, -18.42, -21.97, -24.90, -14.98, -16.92, -22.20, -18.82, -23.31, -13.99, -23.89, -25.46, -24.81, -21.10, -18.02, 0.000, 0.000, 0.000, 03:59:47.323
196, -20.83, -26.60, -18.42, -21.97, -24.90, -14.98, -16.92, -22.20, -18.86, -23.47, -13.84, -24.03, -25.30, -24.88, -21.35, -17.93, 0.000, 0.000, 0.000, 03:59:47.328
197, -20.70, -26.69, -18.57, -22.26, -24.81, -14.98, -16.81, -22.17, -18.86, -23.47, -13.84, -24.03, -25.30, -24.88, -21.35, -17.93, 0.000, 0.000, 0.000, 03:59:47.332
198, -20.70, -26.69, -18.57, -22.26, -24.81, -14.98, -16.81, -22.17, -18.95, -23.42, -13.77, -24.03, -25.39, -24.94, -21.12, -18.02, 0.000, 0.000, 0.000, 03:59:47.335
199, -20.90, -26.55, -18.46, -22.04, -25.08, -14.93, -16.70, -22.02, -18.95, -23.42, -13.77, -24.03, -25.39, -24.94, -21.12, -18.02, 0.000, 0.000, 0.000, 03:59:47.340
200, -20.90, -26.55, -18.46, -22.04, -25.08, -14.93, -16.70, -22.02, -18.95, -23.45, -13.84, -24.10, -25.64, -24.74, -21.08, -18.15, 0.000, 0.000, 0.000, 03:59:47.343
201, -20.94, -26.62, -18.48, -21.95, -25.03, -14.91, -16.61, -22.13, -18.95, -23.45, -13.84, -24.10, -25.64, -24.74, -21.08, -18.15, 0.000, 0.000, 0.000, 03:59:47.348
202, -20.94, -26.62, -18.48, -21.95, -25.03, -14.91, -16.61, -22.13, -18.91, -23.36, -13.79, -23.76, -25.35, -24.92, -21.26, -18.08, 0.000, 0.000, 0.000, 03:59:47.352
203, -20.85, -26.71, -18.46, -22.20, -25.03, -15.00, -16.76, -22.33, -18.91, -23.36, -13.79, -23.76, -25.35, -24.92, -21.26, -18.08, 0.008, 0.936, 0.274, 03:59:47.358
204, -20.85, -26.71, -18.46, -22.20, -25.03, -15.00, -16.76, -22.33, -18.98, -23.42, -13.81, -23.85, -25.17, -24.90, -21.19, -18.02, 0.000, 0.000, 0.000, 03:59:47.360
205, -20.76, -26.62, -18.46, -21.99, -25.03, -14.82, -16.90, -22.20, -18.98, -23.42, -13.81, -23.85, -25.17, -24.90, -21.19, -18.02, 0.000, 0.000, 0.000, 03:59:47.365
206, -20.76, -26.62, -18.46, -21.99, -25.03, -14.82, -16.90, -22.20, -18.89, -23.56, -13.84, -23.85, -25.37, -24.65, -21.41, -18.13, 0.000, 0.000, 0.000, 03:59:47.369
207, -20.68, -26.67, -18.66, -22.04, -25.01, -14.93, -16.83, -22.11, -18.89, -23.56, -13.84, -23.85, -25.37, -24.65, -21.41, -18.13, 0.000, 0.000, 0.000, 03:59:47.372
