%OpenBCI Raw EEG Data
%
%Sample Rate = 250.0 Hz
%First Column = SampleIndex
%Last Column = Timestamp 
%Other Columns = EEG data in microvolts followed by Accel Data (in G) interleaved with Aux Data
0, 0.00, 0.00, 0.00, 0.00, 0.00, 0.00, 0.00, 0.00, -2784.02, -3413.60, -2877.61, -3169.54, -80979.30, -78852.70, -80819.68, -87758.34, 0.010, 0.926, 0.294, 04:17:10.253
1, -20.68, -26.55, -18.44, -22.11, -25.03, -14.93, -16.79, -22.13, -2784.02, -3413.60, -2877.61, -3169.54, -80979.30, -78852.70, -80819.68, -87758.34, 0.000, 0.000, 0.000, 04:17:10.258
2, -20.68, -26.55, -18.44, -22.11, -25.03, -14.93, -16.79, -22.13, -18.95, -23.54, -13.79, -24.12, -25.53, -24.83, -21.14, -17.88, 0.000, 0.000, 0.000, 04:17:10.267
3, -20.81, -26.46, -18.19, -22.35, -25.03, -15.04, -16.79, -22.02, -18.95, -23.54, -13.79, -24.12, -25.53, -24.83, -21.14, -17.88, 0.000, 0.000, 0.000, 04:17:10.267
4, -20.81, -26.46, -18.19, -22.35, -25.03, -15.04, -16.79, -22.02, -18.91, -23.56, -13.86, -24.05, -25.39, -24.68, -21.23, -17.88, 0.000, 0.000, 0.000, 04:17:10.268
5, -20.94, -26.60, -18.44, -22.24, -25.24, -15.04, -16.72, -21.93, -18.91, -23.56, -13.86, -24.05, -25.39, -24.68, -21.23, -17.88, 0.000, 0.000, 0.000, 04:17:10.273
6, -20.94, -26.60, -18.44, -22.24, -25.24, -15.04, -16.72, -21.93, -18.86, -23.58, -13.95, -23.96, -25.37, -24.70, -21.30, -18.06, -0.004, 0.940, 0.352, 04:17:10.278
7, -20.79, -26.55, -18.71, -22.04, -25.06, -15.07, -16.70, -22.13, -18.86, -23.58, -13.95, -23.96, -25.37, -24.70, -21.30, -18.06, 0.000, 0.000, 0.000, 04:17:10.280
8, -20.79, -26.55, -18.71, -22.04, -25.06, -15.07, -16.70, -22.13, -18.82, -23.40, -13.79, -23.80, -25.30, -24.72, -21.10, -18.08, 0.000, 0.000, 0.000, 04:17:10.285
9, -20.79, -26.40, -18.51, -21.97, -25.06, -15.04, -16.54, -22.15, -18.82, -23.40, -13.79, -23.80, -25.30, -24.72, -21.10, -18.08, 0.000, 0.000, 0.000, 04:17:10.289
10, -20.79, -26.40, -18.51, -21.97, -25.06, -15.04, -16.54, -22.15, -19.02, -23.29, -13.68, -23.89, -25.46, -24.79, -21.03, -17.99, 0.000, 0.000, 0.000, 04:17:10.293
11, -20.59, -26.58, -18.55, -21.93, -24.90, -14.91, -16.81, -22.20, -19.02, -23.29, -13.68, -23.89, -25.46, -24.79, -21.03, -17.99, 0.000, 0.000, 0.000, 04:17:10.296
12, -20.59, -26.58, -18.55, -21.93, -24.90, -14.91, -16.81, -22.20, -18.98, -23.51, -13.72, -24.14, -25.21, -24.81, -21.14, -17.84, 0.000, 0.000, 0.000, 04:17:10.301
13, -20.52, -26.62, -18.48, -22.20, -24.92, -14.82, -16.81, -22.15, -18.98, -23.51, -13.72, -24.14, -25.21, -24.81, -21.14, -17.84, 0.000, 0.000, 0.000, 04:17:10.305
14, -20.52, -26.62, -18.48, -22.20, -24.92, -14.82, -16.81, -22.15, -18.71, -23.47, -13.79, -23.80, -25.32, -24.86, -21.21, -17.99, 0.000, 0.000, 0.000, 04:17:10.309
15, -20.74, -26.71, -18.69, -22.06, -24.94, -14.82, -16.79, -22.20, -18.71, -23.47, -13.79, -23.80, -25.32, -24.86, -21.21, -17.99, 0.000, 0.000, 0.000, 04:17:10.313
16, -20.74, -26.71, -18.69, -22.06, -24.94, -14.82, -16.79, -22.20, -19.00, -23.36, -13.77, -23.87, -25.32, -24.83, -21.23, -18.10, -0.002, 0.952, 0.352, 04:17:10.316
17, -20.83, -26.62, -18.55, -22.02, -24.86, -14.84, -16.83, -22.08, -19.00, -23.36, -13.77, -23.87, -25.32, -24.83, -21.23, -18.10, 0.000, 0.000, 0.000, 04:17:10.321
18, -20.83, -26.62, -18.55, -22.02, -24.86, -14.84, -16.83, -22.08, -19.04, -23.47, -14.01, -23.92, -25.24, -24.63, -21.12, -18.22, 0.000, 0.000, 0.000, 04:17:10.325
19, -20.99, -26.53, -18.53, -22.08, -25.24, -15.15, -16.81, -22.20, -19.04, -23.47, -14.01, -23.92, -25.24, -24.63, -21.12, -18.22, 0.000, 0.000, 0.000, 04:17:10.328
20, -20.99, -26.53, -18.53, -22.08, -25.24, -15.15, -16.81, -22.20, -18.98, -23.31, -13.75, -24.01, -25.46, -24.94, -21.12, -18.08, 0.000, 0.000, 0.000, 04:17:10.334
21, -20.56, -26.71, -18.46, -22.15, -25.35, -15.02, -16.65, -22.24, -18.98, -23.31, -13.75, -24.01, -25.46, -24.94, -21.12, -18.08, 0.000, 0.000, 0.000, 04:17:10.336
22, -20.56, -26.71, -18.46, -22.15, -25.35, -15.02, -16.65, -22.24, -18.80, -23.38, -13.70, -23.94, -25.24, -24.94, -21.17, -18.04, 0.000, 0.000, 0.000, 04:17:10.340
23, -20.56, -26.60, -18.57, -22.11, -24.97, -14.86, -16.65, -22.15, -18.80, -23.38, -13.70, -23.94, -25.24, -24.94, -21.17, -18.04, 0.000, 0.000, 0.000, 04:17:10.345
24, -20.56, -26.60, -18.57, -22.11, -24.97, -14.86, -16.65, -22.15, -19.13, -23.29, -14.08, -24.01, -25.32, -24.81, -21.26, -18.26, 0.000, 0.000, 0.000, 04:17:10.348
25, -20.83, -26.49, -18.73, -22.11, -24.97, -14.75, -16.50, -22.13, -19.13, -23.29, -14.08, -24.01, -25.32, -24.81, -21.26, -18.26, 0.000, 0.000, 0.000, 04:17:10.352
26, -20.83, -26.49, -18.73, -22.11, -24.97, -14.75, -16.50, -22.13, -18.95, -23.54, -13.70, -23.94, -25.32, -24.90, -21.17, -18.33, 0.002, 0.938, 0.318, 04:17:10.357
27, -20.70, -26.73, -18.73, -21.90, -24.92, -14.98, -16.58, -22.22, -18.95, -23.54, -13.70, -23.94, -25.32, -24.90, -21.17, -18.33, 0.000, 0.000, 0.000, 04:17:10.360
28, -20.70, -26.73, -18.73, -21.90, -24.92, -14.98, -16.58, -22.22, -18.91, -23.47, -14.08, -24.07, -25.46, -24.88, -21.23, -18.17, 0.000, 0.000, 0.000, 04:17:10.364
29, -20.70, -26.69, -18.42, -22.15, -24.97, -14.80, -16.63, -22.20, -18.91, -23.47, -14.08, -24.07, -25.46, -24.88, -21.23, -18.17, 0.000, 0.000, 0.000, 04:17:10.369
30, -20.70, -26.69, -18.42, -22.15, -24.97, -14.80, -16.63, -22.20, -18.91, -23.42, -14.13, -23.87, -25.30, -24.88, -21.30, -18.15, 0.000, 0.000, 0.000, 04:17:10.373
31, -20.65, -26.51, -18.66, -22.20, -24.88, -14.93, -16.88, -22.13, -18.91, -23.42, -14.13, -23.87, -25.30, -24.88, -21.30, -18.15, 0.000, 0.000, 0.000, 04:17:10.376
32, -20.65, -26.51, -18.66, -22.20, -24.88, -14.93, -16.88, -22.13, -19.09, -23.40, -13.77, -23.92, -25.24, -24.94, -21.03, -18.04, 0.000, 0.000, 0.000, 04:17:10.380
33, -20.70, -26.51, -18.71, -22.17, -24.83, -15.02, -16.61, -22.24, -19.09, -23.40, -13.77, -23.92, -25.24, -24.94, -21.03, -18.04, 0.000, 0.000, 0.000, 04:17:10.385
34, -20.70, -26.51, -18.71, -22.17, -24.83, -15.02, -16.61, -22.24, -19.00, -23.54, -13.72, -23.87, -25.41, -24.70, -21.48, -17.95, 0.000, 0.000, 0.000, 04:17:10.389
35, -20.97, -26.49, -18.62, -22.02, -24.97, -14.93, -16.65, -22.13, -19.00, -23.54, -13.72, -23.87, -25.41, -24.70, -21.48, -17.95, 0.000, 0.000, 0.000, 04:17:10.396
36, -20.97, -26.49, -18.62, -22.02, -24.97, -14.93, -16.65, -22.13, -18.82, -23.34, -13.88, -24.10, -25.35, -24.79, -21.37, -17.79, 0.002, 0.934, 0.310, 04:17:10.396
37, -20.79, -26.71, -18.53, -21.93, -24.92, -15.07, -16.94, -22.24, -18.82, -23.34, -13.88, -24.10, -25.35, -24.79, -21.37, -17.79, 0.000, 0.000, 0.000, 04:17:10.400
38, -20.79, -26.71, -18.53, -21.93, -24.92, -15.07, -16.94, -22.24, -19.00, -23.36, -13.97, -23.89, -25.28, -24.83, -21.03, -18.04, 0.000, 0.000, 0.000, 04:17:10.404
39, -20.61, -26.51, -18.42, -21.99, -24.99, -14.93, -16.79, -22.08, -19.00, -23.36, -13.97, -23.89, -25.28, -24.83, -21.03, -18.04, 0.000, 0.000, 0.000, 04:17:10.409
40, -20.61, -26.51, -18.42, -21.99, -24.99, -14.93, -16.79, -22.08, -19.00, -23.22, -13.75, -23.98, -25.21, -24.83, -21.19, -18.19, 0.000, 0.000, 0.000, 04:17:10.412
41, -20.70, -26.67, -18.73, -22.11, -25.03, -15.04, -16.96, -22.31, -19.00, -23.22, -13.75, -23.98, -25.21, -24.83, -21.19, -18.19, 0.000, 0.000, 0.000, 04:17:10.417
42, -20.70, -26.67, -18.73, -22.11, -25.03, -15.04, -16.96, -22.31, -18.69, -23.45, -14.01, -24.10, -25.32, -24.63, -21.32, -17.93, 0.000, 0.000, 0.000, 04:17:10.419
43, -20.72, -26.71, -18.51, -22.33, -25.03, -14.89, -16.72, -22.20, -18.69, -23.45, -14.01, -24.10, -25.32, -24.63, -21.32, -17.93, 0.000, 0.000, 0.000, 04:17:10.424
44, -20.72, -26.71, -18.51, -22.33, -25.03, -14.89, -16.72, -22.20, -18.78, -23.47, -14.04, -24.12, -25.50, -24.83, -21.39, -18.13, 0.000, 0.000, 0.000, 04:17:10.429
45, -20.68, -26.40, -18.64, -22.04, -25.06, -14.91, -16.63, -22.06, -18.78, -23.47, -14.04, -24.12, -25.50, -24.83, -21.39, -18.13, 0.000, 0.000, 0.000, 04:17:10.432
46, -20.68, -26.40, -18.64, -22.04, -25.06, -14.91, -16.63, -22.06, -18.73, -23.51, -13.84, -24.03, -25.37, -24.74, -21.17, -18.13, -0.004, 0.936, 0.318, 04:17:10.437
47, -20.63, -26.55, -18.44, -22.26, -25.12, -14.89, -16.72, -22.04, -18.73, -23.51, -13.84, -24.03, -25.37, -24.74, -21.17, -18.13, 0.000, 0.000, 0.000, 04:17:10.441
48, -20.63, -26.55, -18.44, -22.26, -25.12, -14.89, -16.72, -22.04, -18.98, -23.45, -13.88, -23.83, -25.50, -24.81, -21.28, -18.08, 0.000, 0.000, 0.000, 04:17:10.444
49, -20.70, -26.33, -18.57, -21.90, -24.97, -14.98, -16.74, -22.17, -18.98, -23.45, -13.88, -23.83, -25.50, -24.81, -21.28, -18.08, 0.000, 0.000, 0.000, 04:17:10.448
50, -20.70, -26.33, -18.57, -21.90, -24.97, -14.98, -16.74, -22.17, -19.02, -23.38, -14.01, -23.80, -25.41, -24.83, -21.19, -18.19, 0.000, 0.000, 0.000, 04:17:10.452
51, -20.68, -26.46, -18.53, -22.11, -25.01, -15.02, -16.70, -22.26, -19.02, -23.38, -14.01, -23.80, -25.41, -24.83, -21.19, -18.19, 0.000, 0.000, 0.000, 04:17:10.457
52, -20.68, -26.46, -18.53, -22.11, -25.01, -15.02, -16.70, -22.26, -18.66, -23.54, -14.01, -24.03, -25.30, -24.88, -21.26, -17.93, 0.000, 0.000, 0.000, 04:17:10.461
53, -20.65, -26.44, -18.35, -22.08, -25.15, -14.86, -16.54, -22.20, -18.66, -23.54, -14.01, -24.03, -25.30, -24.88, -21.26, -17.93, 0.000, 0.000, 0.000, 04:17:10.465
54, -20.65, -26.44, -18.35, -22.08, -25.15, -14.86, -16.54, -22.20, -18.78, -23.47, -13.86, -23.94, -25.41, -24.92, -21.21, -18.04, 0.000, 0.000, 0.000, 04:17:10.467
55, -20.76, -26.58, -18.55, -21.93, -24.99, -14.75, -16.56, -22.13, -18.78, -23.47, -13.86, -23.94, -25.41, -24.92, -21.21, -18.04, 0.000, 0.000, 0.000, 04:17:10.472
56, -20.76, -26.58, -18.55, -21.93, -24.99, -14.75, -16.56, -22.13, -18.86, -23.54, -13.90, -23.96, -25.24, -24.94, -21.17, -18.06, -0.002, 0.942, 0.316, 04:17:10.476
57, -20.79, -26.55, -18.57, -21.86, -25.03, -14.86, -16.88, -22.20, -18.86, -23.54, -13.90, -23.96, -25.24, -24.94, -21.17, -18.06, 0.000, 0.000, 0.000, 04:17:10.479
58, -20.79, -26.55, -18.57, -21.86, -25.03, -14.86, -16.88, -22.20, -18.91, -23.49, -13.90, -24.01, -25.26, -24.74, -21.14, -18.04, 0.000, 0.000, 0.000, 04:17:10.485
59, -20.97, -26.44, -18.73, -21.93, -24.97, -15.04, -16.67, -22.24, -18.91, -23.49, -13.90, -24.01, -25.26, -24.74, -21.14, -18.04, 0.000, 0.000, 0.000, 04:17:10.489
60, -20.97, -26.44, -18.73, -21.93, -24.97, -15.04, -16.67, -22.24, -18.73, -23.51, -13.84, -23.94, -25.39, -24.79, -21.17, -17.88, 0.000, 0.000, 0.000, 04:17:10.492
61, -20.83, -26.46, -18.51, -21.82, -24.97, -15.02, -16.72, -22.15, -18.73, -23.51, -13.84, -23.94, -25.39, -24.79, -21.17, -17.88, 0.000, 0.000, 0.000, 04:17:10.496
62, -20.83, -26.46, -18.51, -21.82, -24.97, -15.02, -16.72, -22.15, -19.04, -23.45, -13.95, -23.98, -25.46, -24.86, -21.28, -18.04, 0.000, 0.000, 0.000, 04:17:10.500
63, -20.63, -26.60, -18.46, -21.90, -25.03, -15.11, -16.65, -22.02, -19.04, -23.45, -13.95, -23.98, -25.46, -24.86, -21.28, -18.04, 0.000, 0.000, 0.000, 04:17:10.503
64, -20.63, -26.60, -18.46, -21.90, -25.03, -15.11, -16.65, -22.02, -19.00, -23.56, -13.93, -23.94, -25.30, -24.83, -21.23, -17.95, 0.000, 0.000, 0.000, 04:17:10.511
65, -20.92, -26.73, -18.62, -22.04, -25.15, -15.11, -16.61, -21.97, -19.00, -23.56, -13.93, -23.94, -25.30, -24.83, -21.23, -17.95, 0.006, 0.932, 0.284, 04:17:10.513
66, -20.92, -26.73, -18.62, -22.04, -25.15, -15.11, -16.61, -21.97, -19.00, -23.49, -13.77, -24.01, -25.19, -24.68, -21.17, -17.77, 0.000, 0.000, 0.000, 04:17:10.517
67, -20.79, -26.49, -18.48, -22.06, -25.15, -15.24, -16.67, -22.31, -19.00, -23.49, -13.77, -24.01, -25.19, -24.68, -21.17, -17.77, 0.000, 0.000, 0.000, 04:17:10.521
68, -20.79, -26.49, -18.48, -22.06, -25.15, -15.24, -16.67, -22.31, -18.78, -23.38, -13.68, -23.96, -25.44, -24.90, -20.94, -18.13, 0.000, 0.000, 0.000, 04:17:10.524
69, -20.76, -26.69, -18.82, -22.04, -25.03, -14.98, -16.85, -22.04, -18.78, -23.38, -13.68, -23.96, -25.44, -24.90, -20.94, -18.13, 0.000, 0.000, 0.000, 04:17:10.528
70, -20.76, -26.69, -18.82, -22.04, -25.03, -14.98, -16.85, -22.04, -18.84, -23.09, -13.79, -23.80, -25.21, -24.77, -21.01, -17.95, 0.000, 0.000, 0.000, 04:17:10.532
71, -20.68, -26.67, -18.73, -21.84, -25.03, -14.93, -16.88, -22.11, -18.84, -23.09, -13.79, -23.80, -25.21, -24.77, -21.01, -17.95, 0.000, 0.000, 0.000, 04:17:10.535
72, -20.68, -26.67, -18.73, -21.84, -25.03, -14.93, -16.88, -22.11, -18.78, -23.27, -13.84, -23.96, -25.57, -24.61, -21.14, -18.24, 0.000, 0.000, 0.000, 04:17:10.541
73, -20.90, -26.60, -18.62, -21.97, -25.19, -14.86, -16.67, -21.97, -18.78, -23.27, -13.84, -23.96, -25.57, -24.61, -21.14, -18.24, 0.000, 0.000, 0.000, 04:17:10.545
74, -20.90, -26.60, -18.62, -21.97, -25.19, -14.86, -16.67, -21.97, -18.78, -23.60, -13.93, -24.01, -25.48, -24.92, -21.12, -17.95, 0.000, 0.000, 0.000, 04:17:10.549
75, -20.63, -26.44, -18.53, -22.17, -25.01, -15.11, -16.61, -22.13, -18.78, -23.60, -13.93, -24.01, -25.48, -24.92, -21.12, -17.95, 0.004, 0.934, 0.302, 04:17:10.552
76, -20.63, -26.44, -18.53, -22.17, -25.01, -15.11, -16.61, -22.13, -18.64, -23.47, -13.88, -23.87, -25.57, -24.94, -21.01, -18.08, 0.000, 0.000, 0.000, 04:17:10.556
77, -20.81, -26.60, -18.40, -22.13, -25.10, -14.95, -16.76, -22.31, -18.64, -23.47, -13.88, -23.87, -25.57, -24.94, -21.01, -18.08, 0.000, 0.000, 0.000, 04:17:10.560
78, -20.81, -26.60, -18.40, -22.13, -25.10, -14.95, -16.76, -22.31, -18.75, -23.27, -13.97, -23.96, -25.39, -24.99, -21.19, -18.13, 0.000, 0.000, 0.000, 04:17:10.564
79, -20.65, -26.71, -18.69, -22.15, -24.97, -15.00, -16.61, -21.97, -18.75, -23.27, -13.97, -23.96, -25.39, -24.99, -21.19, -18.13, 0.000, 0.000, 0.000, 04:17:10.568
80, -20.65, -26.71, -18.69, -22.15, -24.97, -15.00, -16.61, -21.97, -18.73, -23.38, -13.97, -24.21, -25.30, -24.86, -21.35, -18.15, 0.000, 0.000, 0.000, 04:17:10.573
81, -20.68, -26.58, -18.48, -22.02, -25.24, -15.00, -16.67, -21.90, -18.73, -23.38, -13.97, -24.21, -25.30, -24.86, -21.35, -18.15, 0.000, 0.000, 0.000, 04:17:10.575
82, -20.68, -26.58, -18.48, -22.02, -25.24, -15.00, -16.67, -21.90, -18.98, -23.49, -13.97, -24.05, -25.48, -24.83, -21.19, -17.72, 0.000, 0.000, 0.000, 04:17:10.580
83, -20.68, -26.51, -18.51, -22.20, -25.03, -15.02, -16.92, -22.20, -18.98, -23.49, -13.97, -24.05, -25.48, -24.83, -21.19, -17.72, 0.000, 0.000, 0.000, 04:17:10.584
84, -20.68, -26.51, -18.51, -22.20, -25.03, -15.02, -16.92, -22.20, -18.80, -23.56, -14.15, -23.92, -25.41, -24.90, -21.35, -17.97, 0.000, 0.000, 0.000, 04:17:10.588
85, -20.76, -26.53, -18.46, -22.17, -25.01, -15.13, -16.92, -21.99, -18.80, -23.56, -14.15, -23.92, -25.41, -24.90, -21.35, -17.97, -0.006, 0.942, 0.318, 04:17:10.593
86, -20.76, -26.53, -18.46, -22.17, -25.01, -15.13, -16.92, -21.99, -18.75, -23.36, -14.08, -23.89, -25.30, -24.86, -21.08, -18.04, 0.000, 0.000, 0.000, 04:17:10.596
87, -20.54, -26.67, -18.62, -22.02, -25.12, -15.09, -16.81, -22.11, -18.75, -23.36, -14.08, -23.89, -25.30, -24.86, -21.08, -18.04, 0.000, 0.000, 0.000, 04:17:10.601
88, -20.54, -26.67, -18.62, -22.02, -25.12, -15.09, -16.81, -22.11, -18.75, -23.45, -13.77, -23.85, -25.26, -24.99, -21.17, -18.17, 0.000, 0.000, 0.000, 04:17:10.603
89, -20.70, -26.49, -18.48, -21.95, -24.99, -14.86, -16.70, -21.97, -18.75, -23.45, -13.77, -23.85, -25.26, -24.99, -21.17, -18.17, 0.000, 0.000, 0.000, 04:17:10.609
90, -20.70, -26.49, -18.48, -21.95, -24.99, -14.86, -16.70, -21.97, -19.02, -23.51, -13.70, -24.10, -25.39, -24.97, -21.21, -17.90, 0.000, 0.000, 0.000, 04:17:10.611
91, -20.59, -26.69, -18.37, -22.02, -25.03, -14.77, -16.72, -22.20, -19.02, -23.51, -13.70, -24.10, -25.39, -24.97, -21.21, -17.90, 0.000, 0.000, 0.000, 04:17:10.616
92, -20.59, -26.69, -18.37, -22.02, -25.03, -14.77, -16.72, -22.20, -18.82, -23.36, -13.79, -23.89, -25.24, -24.70, -21.48, -17.88, 0.000, 0.000, 0.000, 04:17:10.619
93, -20.81, -26.51, -18.62, -22.24, -25.10, -14.93, -16.88, -22.17, -18.82, -23.36, -13.79, -23.89, -25.24, -24.70, -21.48, -17.88, 0.000, 0.000, 0.000, 04:17:10.624
94, -20.81, -26.51, -18.62, -22.24, -25.10, -14.93, -16.88, -22.17, -18.69, -23.38, -14.04, -23.89, -25.41, -24.79, -21.41, -18.10, 0.000, 0.000, 0.000, 04:17:10.635
95, -20.70, -26.80, -18.48, -21.99, -25.03, -15.11, -16.76, -22.20, -18.69, -23.38, -14.04, -23.89, -25.41, -24.79, -21.41, -18.10, 0.008, 0.936, 0.310, 04:17:10.635
96, -20.70, -26.80, -18.48, -21.99, -25.03, -15.11, -16.76, -22.20, -18.89, -23.45, -13.77, -24.01, -25.28, -24.83, -21.14, -18.10, 0.000, 0.000, 0.000, 04:17:10.636
97, -20.81, -26.62, -18.57, -22.11, -25.03, -14.82, -16.72, -22.15, -18.89, -23.45, -13.77, -24.01, -25.28, -24.83, -21.14, -18.10, 0.000, 0.000, 0.000, 04:17:10.640
98, -20.81, -26.62, -18.57, -22.11, -25.03, -14.82, -16.72, -22.15, -18.86, -23.40, -13.77, -23.92, -25.48, -24.94, -21.10, -18.04, 0.000, 0.000, 0.000, 04:17:10.644
99, -20.79, -26.38, -18.53, -22.08, -24.92, -14.98, -16.67, -21.97, -18.86, -23.40, -13.77, -23.92, -25.48, -24.94, -21.10, -18.04, 0.000, 0.000, 0.000, 04:17:10.648
100, -20.79, -26.38, -18.53, -22.08, -24.92, -14.98, -16.67, -21.97, -18.93, -23.60, -13.86, -23.92, -25.46, -25.03, -21.28, -17.97, 0.000, 0.000, 0.000, 04:17:10.652
101, -20.72, -26.67, -18.55, -22.04, -24.90, -15.09, -16.52, -22.15, -18.93, -23.60, -13.86, -23.92, -25.46, -25.03, -21.28, -17.97, 0.000, 0.000, 0.000, 04:17:10.656
102, -20.72, -26.67, -18.55, -22.04, -24.90, -15.09, -16.52, -22.15, -18.66, -23.45, -13.88, -23.98, -25.35, -24.74, -21.19, -18.17, 0.000, 0.000, 0.000, 04:17:10.659
103, -20.90, -26.53, -18.35, -22.24, -24.92, -15.00, -16.70, -21.95, -18.66, -23.45, -13.88, -23.98, -25.35, -24.74, -21.19, -18.17, 0.000, 0.000, 0.000, 04:17:10.663
104, -20.90, -26.53, -18.35, -22.24, -24.92, -15.00, -16.70, -21.95, -18.95, -23.47, -13.68, -23.96, -25.24, -24.77, -20.97, -17.95, 0.000, 0.000, 0.000, 04:17:10.668
105, -20.90, -26.46, -18.40, -22.17, -24.94, -14.91, -16.81, -22.08, -18.95, -23.47, -13.68, -23.96, -25.24, -24.77, -20.97, -17.95, 0.002, 0.936, 0.294, 04:17:10.673
106, -20.90, -26.46, -18.40, -22.17, -24.94, -14.91, -16.81, -22.08, -18.86, -23.45, -13.97, -24.01, -25.44, -25.21, -21.01, -17.99, 0.000, 0.000, 0.000, 04:17:10.676
107, -20.63, -26.42, -18.57, -22.04, -24.97, -14.89, -16.56, -22.08, -18.86, -23.45, -13.97, -24.01, -25.44, -25.21, -21.01, -17.99, 0.000, 0.000, 0.000, 04:17:10.680
108, -20.63, -26.42, -18.57, -22.04, -24.97, -14.89, -16.56, -22.08, -18.95, -23.40, -14.13, -23.94, -25.41, -24.68, -21.10, -18.15, 0.000, 0.000, 0.000, 04:17:10.683
109, -20.88, -26.78, -18.75, -22.13, -24.83, -14.89, -16.65, -21.90, -18.95, -23.40, -14.13, -23.94, -25.41, -24.68, -21.10, -18.15, 0.000, 0.000, 0.000, 04:17:10.687
110, -20.88, -26.78, -18.75, -22.13, -24.83, -14.89, -16.65, -21.90, -18.73, -23.45, -14.13, -23.96, -25.48, -25.15, -21.10, -18.17, 0.000, 0.000, 0.000, 04:17:10.691
111, -20.79, -26.53, -18.60, -22.11, -25.03, -15.07, -16.76, -21.95, -18.73, -23.45, -14.13, -23.96, -25.48, -25.15, -21.10, -18.17, 0.000, 0.000, 0.000, 04:17:10.696
112, -20.79, -26.53, -18.60, -22.11, -25.03, -15.07, -16.76, -21.95, -18.91, -23.69, -14.06, -23.85, -25.30, -24.92, -21.26, -17.99, 0.000, 0.000, 0.000, 04:17:10.700
113, -20.97, -26.73, -18.73, -22.11, -25.03, -14.84, -16.85, -22.02, -18.91, -23.69, -14.06, -23.85, -25.30, -24.92, -21.26, -17.99, 0.000, 0.000, 0.000, 04:17:10.704
114, -20.97, -26.73, -18.73, -22.11, -25.03, -14.84, -16.85, -22.02, -18.86, -23.49, -13.95, -24.10, -25.17, -24.88, -21.28, -18.08, 0.000, 0.000, 0.000, 04:17:10.708
115, -20.79, -26.51, -18.69, -21.86, -25.01, -14.93, -16.85, -22.08, -18.86, -23.49, -13.95, -24.10, -25.17, -24.88, -21.28, -18.08, -0.002, 0.944, 0.310, 04:17:10.711
116, -20.79, -26.51, -18.69, -21.86, -25.01, -14.93, -16.85, -22.08, -18.75, -23.31, -13.59, -23.85, -25.37, -24.92, -21.19, -17.90, 0.000, 0.000, 0.000, 04:17:10.716
117, -20.79, -26.49, -18.51, -21.82, -25.10, -15.00, -16.88, -22.11, -18.75, -23.31, -13.59, -23.85, -25.37, -24.92, -21.19, -17.90, 0.000, 0.000, 0.000, 04:17:10.719
118, -20.79, -26.49, -18.51, -21.82, -25.10, -15.00, -16.88, -22.11, -18.89, -23.42, -13.59, -23.83, -25.21, -24.88, -21.23, -17.95, 0.000, 0.000, 0.000, 04:17:10.724
119, -20.97, -26.31, -18.48, -22.02, -25.12, -15.18, -16.56, -22.17, -18.89, -23.42, -13.59, -23.83, -25.21, -24.88, -21.23, -17.95, 0.000, 0.000, 0.000, 04:17:10.729
120, -20.97, -26.31, -18.48, -22.02, -25.12, -15.18, -16.56, -22.17, -18.89, -23.56, -13.79, -23.96, -25.35, -25.03, -21.12, -18.24, 0.000, 0.000, 0.000, 04:17:10.733
121, -20.70, -26.46, -18.35, -22.11, -24.86, -14.84, -16.88, -22.28, -18.89, -23.56, -13.79, -23.96, -25.35, -25.03, -21.12, -18.24, 0.000, 0.000, 0.000, 04:17:10.736
122, -20.70, -26.46, -18.35, -22.11, -24.86, -14.84, -16.88, -22.28, -19.00, -23.56, -13.90, -23.80, -25.39, -25.10, -21.19, -18.15, 0.000, 0.000, 0.000, 04:17:10.739
123, -20.52, -26.46, -18.46, -22.02, -24.94, -15.04, -16.85, -22.31, -19.00, -23.56, -13.90, -23.80, -25.39, -25.10, -21.19, -18.15, 0.000, 0.000, 0.000, 04:17:10.743
124, -20.52, -26.46, -18.46, -22.02, -24.94, -15.04, -16.85, -22.31, -18.91, -23.45, -13.97, -23.85, -25.35, -24.83, -21.28, -17.86, 0.000, 0.000, 0.000, 04:17:10.747
125, -20.81, -26.60, -18.75, -22.20, -25.10, -14.98, -16.83, -21.97, -18.91, -23.45, -13.97, -23.85, -25.35, -24.83, -21.28, -17.86, 0.004, 0.946, 0.320, 04:17:10.752
126, -20.81, -26.60, -18.75, -22.20, -25.10, -14.98, -16.83, -21.97, -18.91, -23.36, -13.95, -24.16, -25.28, -24.79, -21.03, -17.99, 0.000, 0.000, 0.000, 04:17:10.757
127, -20.76, -26.58, -18.69, -22.11, -25.15, -15.00, -16.83, -22.13, -18.91, -23.36, -13.95, -24.16, -25.28, -24.79, -21.03, -17.99, 0.000, 0.000, 0.000, 04:17:10.760
128, -20.76, -26.58, -18.69, -22.11, -25.15, -15.00, -16.83, -22.13, -19.00, -23.31, -13.93, -23.87, -25.44, -24.81, -21.12, -18.10, 0.000, 0.000, 0.000, 04:17:10.764
129, -20.70, -26.60, -18.66, -21.99, -24.90, -15.15, -16.94, -22.15, -19.00, -23.31, -13.93, -23.87, -25.44, -24.81, -21.12, -18.10, 0.000, 0.000, 0.000, 04:17:10.767
130, -20.70, -26.60, -18.66, -21.99, -24.90, -15.15, -16.94, -22.15, -18.91, -23.47, -13.97, -23.94, -25.26, -24.68, -21.26, -18.19, 0.000, 0.000, 0.000, 04:17:10.771
131, -20.56, -26.62, -18.42, -22.13, -24.88, -15.04, -16.72, -22.20, -18.91, -23.47, -13.97, -23.94, -25.26, -24.68, -21.26, -18.19, 0.000, 0.000, 0.000, 04:17:10.775
132, -20.56, -26.62, -18.42, -22.13, -24.88, -15.04, -16.72, -22.20, -18.84, -23.45, -13.88, -23.98, -25.41, -24.70, -21.39, -17.68, 0.000, 0.000, 0.000, 04:17:10.779
133, -20.61, -26.55, -18.46, -22.22, -25.15, -14.91, -16.81, -22.35, -18.84, -23.45, -13.88, -23.98, -25.41, -24.70, -21.39, -17.68, 0.000, 0.000, 0.000, 04:17:10.784
134, -20.61, -26.55, -18.46, -22.22, -25.15, -14.91, -16.81, -22.35, -18.98, -23.74, -13.88, -24.12, -25.50, -24.81, -21.21, -17.86, 0.006, 0.950, 0.304, 04:17:10.788
135, -20.45, -26.55, -18.55, -22.20, -25.06, -14.89, -16.72, -22.31, -18.98, -23.74, -13.88, -24.12, -25.50, -24.81, -21.21, -17.86, 0.000, 0.000, 0.000, 04:17:10.791
136, -20.45, -26.55, -18.55, -22.20, -25.06, -14.89, -16.72, -22.31, -18.91, -23.56, -13.95, -23.87, -25.37, -24.81, -21.12, -17.99, 0.000, 0.000, 0.000, 04:17:10.796
137, -20.61, -26.64, -18.53, -22.11, -25.08, -14.98, -16.58, -22.22, -18.91, -23.56, -13.95, -23.87, -25.37, -24.81, -21.12, -17.99, 0.000, 0.000, 0.000, 04:17:10.799
138, -20.61, -26.64, -18.53, -22.11, -25.08, -14.98, -16.58, -22.22, -19.02, -23.49, -13.99, -24.01, -25.26, -24.86, -20.99, -18.08, 0.000, 0.000, 0.000, 04:17:10.803
139, -20.76, -26.40, -18.62, -22.11, -24.94, -14.98, -16.67, -22.28, -19.02, -23.49, -13.99, -24.01, -25.26, -24.86, -20.99, -18.08, 0.000, 0.000, 0.000, 04:17:10.808
140, -20.76, -26.40, -18.62, -22.11, -24.94, -14.98, -16.67, -22.28, -18.98, -23.49, -14.08, -23.74, -25.15, -24.83, -21.26, -18.13, 0.000, 0.000, 0.000, 04:17:10.812
141, -20.72, -26.42, -18.53, -21.90, -25.17, -15.11, -16.81, -22.17, -18.98, -23.49, -14.08, -23.74, -25.15, -24.83, -21.26, -18.13, 0.000, 0.000, 0.000, 04:17:10.816
142, -20.72, -26.42, -18.53, -21.90, -25.17, -15.11, -16.81, -22.17, -18.86, -23.58, -13.95, -24.10, -25.28, -25.03, -21.14, -17.97, 0.000, 0.000, 0.000, 04:17:10.819
143, -20.79, -26.44, -18.62, -22.11, -25.24, -14.89, -16.85, -22.02, -18.86, -23.58, -13.95, -24.10, -25.28, -25.03, -21.14, -17.97, 0.000, 0.000, 0.000, 04:17:10.824
144, -20.79, -26.44, -18.62, -22.11, -25.24, -14.89, -16.85, -22.02, -18.95, -23.54, -13.84, -23.89, -25.41, -24.88, -21.39, -18.08, 0.004, 0.944, 0.308, 04:17:10.827
145, -20.61, -26.67, -18.48, -22.04, -25.10, -14.91, -16.54, -22.24, -18.95, -23.54, -13.84, -23.89, -25.41, -24.88, -21.39, -18.08, 0.000, 0.000, 0.000, 04:17:10.831
146, -20.61, -26.67, -18.48, -22.04, -25.10, -14.91, -16.54, -22.24, -18.71, -23.56, -13.97, -23.96, -25.32, -24.81, -21.41, -18.04, 0.000, 0.000, 0.000, 04:17:10.838
147, -20.70, -26.73, -18.60, -21.93, -24.99, -14.95, -16.83, -22.08, -18.71, -23.56, -13.97, -23.96, -25.32, -24.81, -21.41, -18.04, 0.000, 0.000, 0.000, 04:17:10.840
148, -20.70, -26.73, -18.60, -21.93, -24.99, -14.95, -16.83, -22.08, -18.75, -23.56, -13.68, -24.16, -25.44, -24.94, -21.19, -18.17, 0.000, 0.000, 0.000, 04:17:10.844
149, -20.72, -26.53, -18.60, -22.35, -25.08, -14.89, -16.72, -22.20, -18.75, -23.56, -13.68, -24.16, -25.44, -24.94, -21.19, -18.17, 0.000, 0.000, 0.000, 04:17:10.848
150, -20.72, -26.53, -18.60, -22.35, -25.08, -14.89, -16.72, -22.20, -18.95, -23.42, -13.81, -24.05, -25.39, -24.83, -21.12, -18.24, 0.000, 0.000, 0.000, 04:17:10.851
151, -20.81, -26.49, -18.53, -22.02, -25.03, -14.86, -16.47, -22.06, -18.95, -23.42, -13.81, -24.05, -25.39, -24.83, -21.12, -18.24, 0.000, 0.000, 0.000, 04:17:10.856
152, -20.81, -26.49, -18.53, -22.02, -25.03, -14.86, -16.47, -22.06, -18.80, -23.36, -13.99, -23.94, -25.57, -25.03, -21.01, -18.15, 0.000, 0.000, 0.000, 04:17:10.859
153, -20.74, -26.53, -18.53, -21.93, -25.24, -14.84, -16.72, -22.26, -18.80, -23.36, -13.99, -23.94, -25.57, -25.03, -21.01, -18.15, 0.000, 0.000, 0.000, 04:17:10.863
154, -20.74, -26.53, -18.53, -21.93, -25.24, -14.84, -16.72, -22.26, -18.75, -23.29, -13.88, -23.89, -25.26, -24.68, -21.26, -18.15, -0.002, 0.954, 0.350, 04:17:10.868
155, -20.88, -26.76, -18.71, -22.17, -25.26, -14.86, -16.58, -22.08, -18.75, -23.29, -13.88, -23.89, -25.26, -24.68, -21.26, -18.15, 0.000, 0.000, 0.000, 04:17:10.872
156, -20.88, -26.76, -18.71, -22.17, -25.26, -14.86, -16.58, -22.08, -18.53, -23.34, -13.93, -23.94, -25.03, -24.81, -21.21, -18.35, 0.000, 0.000, 0.000, 04:17:10.875
157, -20.90, -26.73, -18.71, -22.17, -24.99, -14.75, -16.72, -22.33, -18.53, -23.34, -13.93, -23.94, -25.03, -24.81, -21.21, -18.35, 0.000, 0.000, 0.000, 04:17:10.881
158, -20.90, -26.73, -18.71, -22.17, -24.99, -14.75, -16.72, -22.33, -19.09, -23.34, -13.99, -23.94, -25.26, -24.81, -21.39, -18.06, 0.000, 0.000, 0.000, 04:17:10.883
159, -20.68, -26.38, -18.55, -22.20, -24.70, -14.98, -16.83, -22.02, -19.09, -23.34, -13.99, -23.94, -25.26, -24.81, -21.39, -18.06, 0.000, 0.000, 0.000, 04:17:10.894
160, -20.68, -26.38, -18.55, -22.20, -24.70, -14.98, -16.83, -22.02, -18.84, -23.42, -14.06, -24.03, -25.53, -24.99, -21.06, -18.08, 0.000, 0.000, 0.000, 04:17:10.894
161, -20.68, -26.51, -18.37, -22.11, -24.99, -14.93, -16.85, -22.13, -18.84, -23.42, -14.06, -24.03, -25.53, -24.99, -21.06, -18.08, 0.000, 0.000, 0.000, 04:17:10.897
162, -20.68, -26.51, -18.37, -22.11, -24.99, -14.93, -16.85, -22.13, -18.89, -23.31, -13.88, -23.92, -25.41, -24.90, -21.26, -18.15, 0.000, 0.000, 0.000, 04:17:10.899
163, -20.90, -26.60, -18.42, -22.17, -25.03, -15.04, -17.05, -22.11, -18.89, -23.31, -13.88, -23.92, -25.41, -24.90, -21.26, -18.15, 0.000, 0.000, 0.000, 04:17:10.903
164, -20.90, -26.60, -18.42, -22.17, -25.03, -15.04, -17.05, -22.11, -18.95, -23.45, -13.86, -23.94, -25.57, -24.72, -21.28, -18.06, 0.000, 0.944, 0.334, 04:17:10.907
165, -20.85, -26.51, -18.33, -22.24, -25.10, -14.93, -17.03, -22.08, -18.95, -23.45, -13.86, -23.94, -25.57, -24.72, -21.28, -18.06, 0.000, 0.000, 0.000, 04:17:10.912
166, -20.85, -26.51, -18.33, -22.24, -25.10, -14.93, -17.03, -22.08, -18.66, -23.63, -13.97, -24.36, -25.46, -25.01, -21.48, -18.08, 0.000, 0.000, 0.000, 04:17:10.915
167, -20.74, -26.69, -18.35, -22.08, -25.12, -14.98, -16.58, -22.02, -18.66, -23.63, -13.97, -24.36, -25.46, -25.01, -21.48, -18.08, 0.000, 0.000, 0.000, 04:17:10.919
168, -20.74, -26.69, -18.35, -22.08, -25.12, -14.98, -16.58, -22.02, -18.82, -23.49, -13.90, -23.80, -25.41, -24.79, -21.12, -18.35, 0.000, 0.000, 0.000, 04:17:10.925
169, -20.88, -26.64, -18.44, -22.06, -24.86, -15.11, -16.61, -22.17, -18.82, -23.49, -13.90, -23.80, -25.41, -24.79, -21.12, -18.35, 0.000, 0.000, 0.000, 04:17:10.927
170, -20.88, -26.64, -18.44, -22.06, -24.86, -15.11, -16.61, -22.17, -18.95, -23.60, -14.04, -23.89, -25.32, -24.94, -21.23, -18.10, 0.000, 0.000, 0.000, 04:17:10.931
171, -20.76, -26.44, -18.46, -22.15, -25.19, -15.02, -16.85, -21.84, -18.95, -23.60, -14.04, -23.89, -25.32, -24.94, -21.23, -18.10, 0.000, 0.000, 0.000, 04:17:10.936
172, -20.76, -26.44, -18.46, -22.15, -25.19, -15.02, -16.85, -21.84, -19.00, -23.47, -13.79, -23.89, -25.59, -24.65, -21.12, -18.22, 0.000, 0.000, 0.000, 04:17:10.939
173, -20.81, -26.40, -18.40, -22.04, -25.06, -15.07, -16.56, -22.08, -19.00, -23.47, -13.79, -23.89, -25.59, -24.65, -21.12, -18.22, 0.000, 0.000, 0.000, 04:17:10.944
174, -20.81, -26.40, -18.40, -22.04, -25.06, -15.07, -16.56, -22.08, -18.82, -23.34, -13.93, -24.01, -25.44, -24.59, -21.26, -18.06, 0.000, 0.928, 0.320, 04:17:10.947
175, -20.61, -26.55, -18.46, -22.17, -25.10, -15.13, -16.54, -22.17, -18.82, -23.34, -13.93, -24.01, -25.44, -24.59, -21.26, -18.06, 0.000, 0.000, 0.000, 04:17:10.953
176, -20.61, -26.55, -18.46, -22.17, -25.10, -15.13, -16.54, -22.17, -19.02, -23.49, -13.93, -23.85, -25.21, -24.83, -21.30, -18.04, 0.000, 0.000, 0.000, 04:17:10.955
177, -20.81, -26.58, -18.46, -22.06, -25.06, -15.00, -16.58, -22.26, -19.02, -23.49, -13.93, -23.85, -25.21, -24.83, -21.30, -18.04, 0.000, 0.000, 0.000, 04:17:10.959
178, -20.81, -26.58, -18.46, -22.06, -25.06, -15.00, -16.58, -22.26, -18.86, -23.29, -13.84, -23.92, -25.48, -25.03, -21.08, -18.10, 0.000, 0.000, 0.000, 04:17:10.963
179, -20.70, -26.58, -18.66, -22.04, -25.03, -15.09, -16.54, -21.99, -18.86, -23.29, -13.84, -23.92, -25.48, -25.03, -21.08, -18.10, 0.000, 0.000, 0.000, 04:17:10.967
180, -20.70, -26.58, -18.66, -22.04, -25.03, -15.09, -16.54, -21.99, -19.00, -23.29, -13.81, -23.89, -25.32, -24.99, -21.01, -18.15, 0.000, 0.000, 0.000, 04:17:10.972
181, -20.76, -26.44, -18.57, -22.04, -25.08, -14.80, -16.72, -22.11, -19.00, -23.29, -13.81, -23.89, -25.32, -24.99, -21.01, -18.15, 0.000, 0.000, 0.000, 04:17:10.975
182, -20.76, -26.44, -18.57, -22.04, -25.08, -14.80, -16.72, -22.11, -18.98, -23.34, -13.75, -24.21, -25.39, -24.86, -21.06, -18.06, 0.000, 0.000, 0.000, 04:17:10.979
183, -20.65, -26.51, -18.37, -21.93, -25.03, -15.09, -16.94, -22.33, -18.98, -23.34, -13.75, -24.21, -25.39, -24.86, -21.06, -18.06, 0.000, 0.000, 0.000, 04:17:10.983
184, -20.65, -26.51, -18.37, -21.93, -25.03, -15.09, -16.94, -22.33, -18.69, -23.34, -13.95, -23.85, -25.41, -24.90, -21.39, -18.19, 0.000, 0.930, 0.320, 04:17:10.988
185, -20.81, -26.55, -18.40, -22.06, -24.99, -14.75, -16.83, -22.08, -18.69, -23.34, -13.95, -23.85, -25.41, -24.90, -21.39, -18.19, 0.000, 0.000, 0.000, 04:17:10.992
186, -20.81, -26.55, -18.40, -22.06, -24.99, -14.75, -16.83, -22.08, -18.66, -23.58, -13.95, -23.92, -25.55, -24.90, -21.30, -18.28, 0.000, 0.000, 0.000, 04:17:10.997
187, -20.70, -26.58, -18.42, -21.99, -24.81, -14.93, -16.85, -22.11, -18.66, -23.58, -13.95, -23.92, -25.55, -24.90, -21.30, -18.28, 0.000, 0.000, 0.000, 04:17:10.999
188, -20.70, -26.58, -18.42, -21.99, -24.81, -14.93, -16.85, -22.11, -18.91, -23.60, -13.95, -24.05, -25.30, -24.83, -21.14, -18.04, 0.000, 0.000, 0.000, 04:17:11.003
189, -20.70, -26.42, -18.48, -22.06, -25.01, -14.89, -16.85, -22.15, -18.91, -23.60, -13.95, -24.05, -25.30, -24.83, -21.14, -18.04, 0.000, 0.000, 0.000, 04:17:11.007
190, -20.70, -26.42, -18.48, -22.06, -25.01, -14.89, -16.85, -22.15, -18.91, -23.60, -14.01, -24.03, -25.50, -24.92, -21.14, -17.99, 0.000, 0.000, 0.000, 04:17:11.010
191, -20.68, -26.55, -18.46, -22.20, -25.10, -14.98, -16.79, -22.11, -18.91, -23.60, -14.01, -24.03, -25.50, -24.92, -21.14, -17.99, 0.000, 0.000, 0.000, 04:17:11.015
192, -20.68, -26.55, -18.46, -22.20, -25.10, -14.98, -16.79, -22.11, -18.93, -23.38, -13.70, -23.92, -25.41, -24.88, -21.01, -18.24, 0.000, 0.000, 0.000, 04:17:11.018
193, -20.70, -26.35, -18.73, -22.15, -25.12, -14.95, -16.94, -22.42, -18.93, -23.38, -13.70, -23.92, -25.41, -24.88, -21.01, -18.24, 0.000, 0.930, 0.308, 04:17:11.023
194, -20.70, -26.35, -18.73, -22.15, -25.12, -14.95, -16.94, -22.42, -18.89, -23.51, -13.86, -23.83, -25.15, -24.79, -21.19, -18.26, 0.000, 0.000, 0.000, 04:17:11.028
195, -20.76, -26.60, -18.64, -22.13, -24.92, -15.04, -16.70, -22.04, -18.89, -23.51, -13.86, -23.83, -25.15, -24.79, -21.19, -18.26, 0.000, 0.000, 0.000, 04:17:11.031
196, -20.76, -26.60, -18.64, -22.13, -24.92, -15.04, -16.70, -22.04, -18.60, -23.34, -13.93, -24.03, -25.12, -24.61, -21.21, -18.13, 0.000, 0.000, 0.000, 04:17:11.035
197, -20.68, -26.40, -18.55, -21.86, -24.94, -15.27, -16.67, -22.02, -18.60, -23.34, -13.93, -24.03, -25.12, -24.61, -21.21, -18.13, 0.000, 0.000, 0.000, 04:17:11.039
198, -20.68, -26.40, -18.55, -21.86, -24.94, -15.27, -16.67, -22.02, -18.93, -23.63, -13.84, -23.96, -25.35, -24.86, -21.23, -18.06, 0.000, 0.000, 0.000, 04:17:11.043
199, -20.63, -26.31, -18.51, -21.93, -24.92, -14.86, -16.79, -22.15, -18.93, -23.63, -13.84, -23.96, -25.35, -24.86, -21.23, -18.06, 0.000, 0.000, 0.000, 04:17:11.046
200, -20.63, -26.31, -18.51, -21.93, -24.92, -14.86, -16.79, -22.15, -18.89, -23.42, -14.10, -23.96, -25.21, -24.83, -21.17, -17.97, 0.000, 0.000, 0.000, 04:17:11.052
201, -20.85, -26.53, -18.55, -22.17, -25.12, -14.86, -16.72, -22.24, -18.89, -23.42, -14.10, -23.96, -25.21, -24.83, -21.17, -17.97, 0.000, 0.000, 0.000, 04:17:11.056
202, -20.85, -26.53, -18.55, -22.17, -25.12, -14.86, -16.72, -22.24, -18.66, -23.60, -13.72, -23.89, -25.17, -24.83, -21.35, -17.95, 0.000, 0.000, 0.000, 04:17:11.059
203, -20.70, -26.58, -18.48, -22.22, -24.94, -15.13, -16.67, -22.06, -18.66, -23.60, -13.72, -23.89, -25.17, -24.83, -21.35, -17.95, -0.002, 0.926, 0.290, 04:17:11.063
204, -20.70, -26.58, -18.48, -22.22, -24.94, -15.13, -16.67, -22.06, -18.82, -23.38, -13.95, -23.83, -25.41, -24.97, -21.23, -18.13, 0.000, 0.000, 0.000, 04:17:11.066
205, -20.90, -26.60, -18.84, -22.31, -24.94, -15.13, -16.76, -22.17, -18.82, -23.38, -13.95, -23.83, -25.41, -24.97, -21.23, -18.13, 0.000, 0.000, 0.000, 04:17:11.071
206, -20.90, -26.60, -18.84, -22.31, -24.94, -15.13, -16.76, -22.17, -18.62, -23.29, -13.77, -24.03, -25.35, -24.97, -21.01, -17.97, 0.000, 0.000, 0.000, 04:17:11.074
207, -20.68, -26.64, -18.46, -22.06, -25.17, -14.95, -16.90, -21.86, -18.62, -23.29, -13.77, -24.03, -25.35, -24.97, -21.01, -17.97, 0.000, 0.000, 0.000, 04:17:11.079
208, -20.68, -26.64, -18.46, -22.06, -25.17, -14.95, -16.90, -21.86, -18.91, -23.47, -13.77, -24.03, -25.39, -24.77, -21.23, -17.99, 0.000, 0.000, 0.000, 04:17:11.084
209, -20.90, -26.51, -18.60, -22.08, -25.08, -15.15, -16.88, -21.95, -18.91, -23.47, -13.77, -24.03, -25.39, -24.77, -21.23, -17.99, 0.000, 0.000, 0.000, 04:17:11.086
210, -20.90, -26.51, -18.60, -22.08, -25.08, -15.15, -16.88, -21.95, -18.71, -23.47, -13.63, -23.96, -25.30, -25.01, -21.39, -18.13, 0.000, 0.000, 0.000, 04:17:11.091
211, -20.81, -26.67, -18.48, -21.99, -25.08, -15.09, -16.83, -22.11, -18.71, -23.47, -13.63, -23.96, -25.30, -25.01, -21.39, -18.13, 0.000, 0.000, 0.000, 04:17:11.094
212, -20.81, -26.67, -18.48, -21.99, -25.08, -15.09, -16.83, -22.11, -18.64, -23.60, -13.68, -23.89, -25.15, -24.72, -21.17, -18.19, 0.000, 0.000, 0.000, 04:17:11.099
213, -20.90, -26.53, -18.73, -22.04, -24.81, -14.84, -16.90, -22.22, -18.64, -23.60, -13.68, -23.89, -25.15, -24.72, -21.17, -18.19, 0.000, 0.930, 0.308, 04:17:11.103
214, -20.90, -26.53, -18.73, -22.04, -24.81, -14.84, -16.90, -22.22, -18.82, -23.54, -13.86, -24.03, -25.32, -24.72, -21.23, -18.17, 0.000, 0.000, 0.000, 04:17:11.107
215, -20.70, -26.51, -18.69, -21.95, -24.90, -14.93, -16.65, -22.33, -18.82, -23.54, -13.86, -24.03, -25.32, -24.72, -21.23, -18.17, 0.000, 0.000, 0.000, 04:17:11.112
216, -20.70, -26.51, -18.69, -21.95, -24.90, -14.93, -16.65, -22.33, -18.78, -23.45, -13.81, -24.03, -25.26, -24.79, -21.46, -17.97, 0.000, 0.000, 0.000, 04:17:11.114
217, -20.81, -26.64, -18.78, -21.95, -25.06, -14.91, -16.70, -22.13, -18.78, -23.45, -13.81, -24.03, -25.26, -24.79, -21.46, -17.97, 0.000, 0.000, 0.000, 04:17:11.119
218, -20.81, -26.64, -18.78, -21.95, -25.06, -14.91, -16.70, -22.13, -18.78, -23.56, -13.93, -24.10, -25.30, -24.81, -21.32, -18.02, 0.000, 0.000, 0.000, 04:17:11.123
219, -20.68, -26.73, -18.51, -22.11, -25.15, -14.91, -16.74, -21.88, -18.78, -23.56, -13.93, -24.10, -25.30, -24.81, -21.32, -18.02, 0.000, 0.000, 0.000, 04:17:11.126
220, -20.68, -26.73, -18.51, -22.11, -25.15, -14.91, -16.74, -21.88, -19.02, -23.42, -13.72, -24.01, -25.24, -24.70, -21.23, -18.13, 0.000, 0.000, 0.000, 04:17:11.131
221, -20.83, -26.60, -18.69, -22.08, -24.99, -15.02, -16.81, -22.08, -19.02, -23.42, -13.72, -24.01, -25.24, -24.70, -21.23, -18.13, 0.000, 0.000, 0.000, 04:17:11.135
222, -20.83, -26.60, -18.69, -22.08, -24.99, -15.02, -16.81, -22.08, -18.80, -23.36, -13.95, -23.89, -25.55, -24.72, -21.23, -18.02, 0.000, 0.000, 0.000, 04:17:11.139
223, -20.81, -26.64, -18.40, -22.20, -25.01, -14.95, -16.67, -21.97, -18.80, -23.36, -13.95, -23.89, -25.55, -24.72, -21.23, -18.02, 0.000, 0.936, 0.318, 04:17:11.143
224, -20.81, -26.64, -18.40, -22.20, -25.01, -14.95, -16.67, -21.97, -19.04, -23.42, -13.90, -23.94, -25.44, -24.92, -21.32, -17.97, 0.000, 0.000, 0.000, 04:17:11.146
225, -20.50, -26.67, -18.42, -22.13, -25.06, -15.02, -16.76, -21.88, -19.04, -23.42, -13.90, -23.94, -25.44, -24.92, -21.32, -17.97, 0.000, 0.000, 0.000, 04:17:11.151
226, -20.50, -26.67, -18.42, -22.13, -25.06, -15.02, -16.76, -21.88, -19.04, -23.56, -13.95, -23.83, -25.21, -24.92, -21.17, -18.17, 0.000, 0.000, 0.000, 04:17:11.156
227, -20.54, -26.49, -18.48, -22.02, -24.90, -15.02, -16.72, -22.13, -19.04, -23.56, -13.95, -23.83, -25.21, -24.92, -21.17, -18.17, 0.000, 0.000, 0.000, 04:17:11.162
228, -20.54, -26.49, -18.48, -22.02, -24.90, -15.02, -16.72, -22.13, -18.84, -23.54, -14.01, -24.03, -25.39, -24.74, -21.28, -18.13, 0.000, 0.000, 0.000, 04:17:11.164
229, -20.81, -26.51, -18.53, -22.06, -24.97, -14.77, -16.70, -22.13, -18.84, -23.54, -14.01, -24.03, -25.39, -24.74, -21.28, -18.13, 0.000, 0.000, 0.000, 04:17:11.168
230, -20.81, -26.51, -18.53, -22.06, -24.97, -14.77, -16.70, -22.13, -19.04, -23.65, -13.81, -23.74, -25.24, -24.92, -21.35, -18.06, 0.000, 0.000, 0.000, 04:17:11.171
231, -20.70, -26.69, -18.60, -21.73, -25.03, -14.89, -16.76, -22.17, -19.04, -23.65, -13.81, -23.74, -25.24, -24.92, -21.35, -18.06, 0.000, 0.000, 0.000, 04:17:11.175
232, -20.70, -26.69, -18.60, -21.73, -25.03, -14.89, -16.76, -22.17, -18.91, -23.60, -13.77, -23.74, -25.19, -24.77, -21.10, -18.22, 0.000, 0.000, 0.000, 04:17:11.179
233, -20.65, -26.58, -18.60, -22.17, -24.97, -14.95, -17.03, -22.20, -18.91, -23.60, -13.77, -23.74, -25.19, -24.77, -21.10, -18.22, -0.002, 0.942, 0.318, 04:17:11.183
234, -20.65, -26.58, -18.60, -22.17, -24.97, -14.95, -17.03, -22.20, -19.04, -23.42, -13.99, -24.01, -25.30, -24.88, -21.10, -17.95, 0.000, 0.000, 0.000, 04:17:11.187
235, -20.88, -26.51, -18.62, -21.99, -24.99, -14.91, -16.85, -22.20, -19.04, -23.42, -13.99, -24.01, -25.30, -24.88, -21.10, -17.95, 0.000, 0.000, 0.000, 04:17:11.191
236, -20.88, -26.51, -18.62, -21.99, -24.99, -14.91, -16.85, -22.20, -18.98, -23.51, -13.72, -24.12, -25.17, -24.74, -21.17, -18.22, 0.000, 0.000, 0.000, 04:17:11.195
237, -20.68, -26.58, -18.53, -22.11, -25.03, -15.02, -16.72, -21.90, -18.98, -23.51, -13.72, -24.12, -25.17, -24.74, -21.17, -18.22, 0.000, 0.000, 0.000, 04:17:11.198
238, -20.68, -26.58, -18.53, -22.11, -25.03, -15.02, -16.72, -21.90, -18.89, -23.42, -13.93, -23.83, -25.48, -24.77, -21.26, -18.13, 0.000, 0.000, 0.000, 04:17:11.202
239, -20.68, -26.62, -18.53, -22.06, -24.88, -15.00, -16.58, -22.08, -18.89, -23.42, -13.93, -23.83, -25.48, -24.77, -21.26, -18.13, 0.000, 0.000, 0.000, 04:17:11.207
240, -20.68, -26.62, -18.53, -22.06, -24.88, -15.00, -16.58, -22.08, -18.95, -23.47, -13.75, -24.01, -25.37, -24.79, -21.35, -18.22, 0.000, 0.000, 0.000, 04:17:11.210
241, -20.88, -26.46, -18.51, -22.06, -24.90, -14.98, -16.74, -22.11, -18.95, -23.47, -13.75, -24.01, -25.37, -24.79, -21.35, -18.22, 0.000, 0.000, 0.000, 04:17:11.215
242, -20.88, -26.46, -18.51, -22.06, -24.90, -14.98, -16.74, -22.11, -19.09, -23.49, -13.99, -24.14, -25.48, -24.83, -21.14, -18.19, 0.000, 0.000, 0.000, 04:17:11.219
243, -20.79, -26.71, -18.57, -22.04, -24.99, -15.07, -16.76, -22.33, -19.09, -23.49, -13.99, -24.14, -25.48, -24.83, -21.14, -18.19, 0.004, 0.932, 0.320, 04:17:11.223
244, -20.79, -26.71, -18.57, -22.04, -24.99, -15.07, -16.76, -22.33, -18.86, -23.45, -13.90, -24.21, -25.46, -24.86, -21.37, -18.17, 0.000, 0.000, 0.000, 04:17:11.227
245, -20.54, -26.49, -18.60, -22.28, -25.10, -15.04, -16.90, -22.08, -18.86, -23.45, -13.90, -24.21, -25.46, -24.86, -21.37, -18.17, 0.000, 0.000, 0.000, 04:17:11.230
246, -20.54, -26.49, -18.60, -22.28, -25.10, -15.04, -16.90, -22.08, -18.80, -23.45, -13.86, -24.25, -25.37, -24.90, -21.17, -18.19, 0.000, 0.000, 0.000, 04:17:11.236
247, -20.81, -26.71, -18.55, -22.02, -25.24, -15.00, -16.67, -22.04, -18.80, -23.45, -13.86, -24.25, -25.37, -24.90, -21.17, -18.19, 0.000, 0.000, 0.000, 04:17:11.240
248, -20.81, -26.71, -18.55, -22.02, -25.24, -15.00, -16.67, -22.04, -19.09, -23.60, -13.79, -24.01, -25.28, -24.72, -21.06, -18.10, 0.000, 0.000, 0.000, 04:17:11.244
249, -20.72, -26.55, -18.51, -22.20, -25.06, -14.95, -16.85, -22.15, -19.09, -23.60, -13.79, -24.01, -25.28, -24.72, -21.06, -18.10, 0.000, 0.000, 0.000, 04:17:11.247
250, -20.72, -26.55, -18.51, -22.20, -25.06, -14.95, -16.85, -22.15, -18.95, -23.74, -13.90, -24.03, -25.41, -24.94, -21.26, -18.02, 0.000, 0.000, 0.000, 04:17:11.251
251, -20.56, -26.46, -18.55, -22.11, -24.92, -14.91, -16.74, -22.28, -18.95, -23.74, -13.90, -24.03, -25.41, -24.94, -21.26, -18.02, 0.000, 0.000, 0.000, 04:17:11.254
252, -20.56, -26.46, -18.55, -22.11, -24.92, -14.91, -16.74, -22.28, -18.89, -23.60, -13.97, -23.92, -25.35, -24.79, -21.17, -17.93, 0.000, 0.936, 0.330, 04:17:11.258
253, -20.94, -26.42, -18.53, -22.20, -24.92, -14.86, -17.05, -22.08, -18.89, -23.60, -13.97, -23.92, -25.35, -24.79, -21.17, -17.93, 0.000, 0.000, 0.000, 04:17:11.262
254, -20.94, -26.42, -18.53, -22.20, -24.92, -14.86, -17.05, -22.08, -18.95, -23.25, -13.84, -23.83, -25.53, -24.86, -21.12, -18.06, 0.000, 0.000, 0.000, 04:17:11.267
255, -20.88, -26.46, -18.37, -22.17, -25.08, -15.09, -16.72, -22.40, -18.95, -23.25, -13.84, -23.83, -25.53, -24.86, -21.12, -18.06, 0.000, 0.000, 0.000, 04:17:11.271
0, -20.88, -26.46, -18.37, -22.17, -25.08, -15.09, -16.72, -22.40, -18.98, -23.54, -14.04, -23.98, -25.21, -24.92, -21.08, -18.10, 0.000, 0.000, 0.000, 04:17:11.274
1, -20.90, -26.51, -18.46, -22.15, -25.06, -15.00, -16.70, -22.31, -18.98, -23.54, -14.04, -23.98, -25.21, -24.92, -21.08, -18.10, 0.000, 0.000, 0.000, 04:17:11.278
2, -20.90, -26.51, -18.46, -22.15, -25.06, -15.00, -16.70, -22.31, -18.98, -23.51, -13.84, -23.92, -25.26, -24.90, -21.10, -17.90, 0.000, 0.000, 0.000, 04:17:11.282
3, -20.90, -26.73, -18.44, -22.08, -25.06, -14.98, -16.67, -22.08, -18.98, -23.51, -13.84, -23.92, -25.26, -24.90, -21.10, -17.90, 0.000, 0.000, 0.000, 04:17:11.286
4, -20.90, -26.73, -18.44, -22.08, -25.06, -14.98, -16.67, -22.08, -18.89, -23.16, -14.01, -23.94, -25.59, -24.81, -21.03, -18.10, 0.000, 0.000, 0.000, 04:17:11.292
5, -20.81, -26.73, -18.73, -22.04, -25.19, -14.91, -16.72, -22.24, -18.89, -23.16, -14.01, -23.94, -25.59, -24.81, -21.03, -18.10, 0.000, 0.000, 0.000, 04:17:11.295
6, -20.81, -26.73, -18.73, -22.04, -25.19, -14.91, -16.72, -22.24, -18.93, -23.49, -13.75, -23.69, -25.37, -24.81, -21.28, -17.93, 0.006, 0.938, 0.332, 04:17:11.300
7, -20.68, -26.69, -18.73, -22.02, -25.26, -14.95, -16.96, -21.90, -18.93, -23.49, -13.75, -23.69, -25.37, -24.81, -21.28, -17.93, 0.000, 0.000, 0.000, 04:17:11.302
8, -20.68, -26.69, -18.73, -22.02, -25.26, -14.95, -16.96, -21.90, -18.91, -23.47, -13.75, -24.03, -25.10, -24.72, -21.26, -18.10, 0.000, 0.000, 0.000, 04:17:11.307
9, -20.74, -26.55, -18.62, -21.97, -25.06, -15.04, -16.99, -22.11, -18.91, -23.47, -13.75, -24.03, -25.10, -24.72, -21.26, -18.10, 0.000, 0.000, 0.000, 04:17:11.311
10, -20.74, -26.55, -18.62, -21.97, -25.06, -15.04, -16.99, -22.11, -18.73, -23.51, -13.88, -24.27, -25.37, -24.52, -21.17, -18.15, 0.000, 0.000, 0.000, 04:17:11.314
11, -20.56, -26.46, -18.44, -22.06, -25.12, -14.93, -16.90, -21.90, -18.73, -23.51, -13.88, -24.27, -25.37, -24.52, -21.17, -18.15, 0.000, 0.000, 0.000, 04:17:11.318
12, -20.56, -26.46, -18.44, -22.06, -25.12, -14.93, -16.90, -21.90, -18.84, -23.56, -13.84, -24.01, -25.35, -24.68, -21.28, -17.99, 0.000, 0.000, 0.000, 04:17:11.322
13, -20.74, -26.60, -18.33, -22.17, -25.06, -15.07, -16.81, -22.04, -18.84, -23.56, -13.84, -24.01, -25.35, -24.68, -21.28, -17.99, 0.000, 0.000, 0.000, 04:17:11.326
14, -20.74, -26.60, -18.33, -22.17, -25.06, -15.07, -16.81, -22.04, -18.98, -23.49, -13.81, -23.85, -25.44, -24.61, -21.08, -17.95, 0.000, 0.000, 0.000, 04:17:11.331
15, -20.72, -26.49, -18.57, -21.97, -25.12, -14.91, -16.90, -22.04, -18.98, -23.49, -13.81, -23.85, -25.44, -24.61, -21.08, -17.95, 0.000, 0.000, 0.000, 04:17:11.335
16, -20.72, -26.49, -18.57, -21.97, -25.12, -14.91, -16.90, -22.04, -19.09, -23.58, -13.79, -24.03, -25.30, -24.88, -21.28, -18.15, 0.010, 0.934, 0.296, 04:17:11.339
17, -20.65, -26.60, -18.57, -22.08, -25.06, -14.93, -16.83, -21.95, -19.09, -23.58, -13.79, -24.03, -25.30, -24.88, -21.28, -18.15, 0.000, 0.000, 0.000, 04:17:11.342
18, -20.65, -26.60, -18.57, -22.08, -25.06, -14.93, -16.83, -21.95, -18.89, -23.45, -13.93, -23.98, -25.26, -25.01, -21.21, -18.17, 0.000, 0.000, 0.000, 04:17:11.346
19, -20.65, -26.69, -18.57, -22.04, -25.03, -14.89, -16.83, -22.17, -18.89, -23.45, -13.93, -23.98, -25.26, -25.01, -21.21, -18.17, 0.000, 0.000, 0.000, 04:17:11.351
20, -20.65, -26.69, -18.57, -22.04, -25.03, -14.89, -16.83, -22.17, -18.86, -23.51, -13.86, -24.01, -25.30, -24.74, -21.19, -18.08, 0.000, 0.000, 0.000, 04:17:11.354
21, -20.88, -26.73, -18.46, -22.06, -25.08, -14.86, -17.03, -22.13, -18.86, -23.51, -13.86, -24.01, -25.30, -24.74, -21.19, -18.08, 0.000, 0.000, 0.000, 04:17:11.358
22, -20.88, -26.73, -18.46, -22.06, -25.08, -14.86, -17.03, -22.13, -18.69, -23.49, -13.99, -23.98, -25.24, -24.79, -21.17, -18.24, 0.000, 0.000, 0.000, 04:17:11.363
23, -20.72, -26.42, -18.28, -22.40, -25.08, -14.89, -16.58, -22.17, -18.69, -23.49, -13.99, -23.98, -25.24, -24.79, -21.17, -18.24, 0.000, 0.000, 0.000, 04:17:11.367
24, -20.72, -26.42, -18.28, -22.40, -25.08, -14.89, -16.58, -22.17, -18.71, -23.56, -13.95, -23.96, -25.39, -24.79, -21.14, -18.24, 0.000, 0.000, 0.000, 04:17:11.371
25, -20.52, -26.51, -18.48, -21.95, -24.92, -14.95, -16.76, -22.26, -18.71, -23.56, -13.95, -23.96, -25.39, -24.79, -21.14, -18.24, 0.000, 0.000, 0.000, 04:17:11.375
26, -20.52, -26.51, -18.48, -21.95, -24.92, -14.95, -16.76, -22.26, -18.91, -23.58, -13.95, -23.94, -25.32, -24.79, -21.26, -17.95, 0.000, 0.932, 0.288, 04:17:11.380
27, -20.63, -26.60, -18.51, -21.99, -25.06, -15.00, -16.74, -22.26, -18.91, -23.58, -13.95, -23.94, -25.32, -24.79, -21.26, -17.95, 0.000, 0.000, 0.000, 04:17:11.382
28, -20.63, -26.60, -18.51, -21.99, -25.06, -15.00, -16.74, -22.26, -19.02, -23.54, -13.93, -24.18, -25.50, -24.63, -21.03, -17.97, 0.000, 0.000, 0.000, 04:17:11.388
29, -20.81, -26.64, -18.53, -22.06, -25.32, -14.86, -16.61, -22.13, -19.02, -23.54, -13.93, -24.18, -25.50, -24.63, -21.03, -17.97, 0.000, 0.000, 0.000, 04:17:11.392
30, -20.81, -26.64, -18.53, -22.06, -25.32, -14.86, -16.61, -22.13, -19.02, -23.38, -14.08, -24.10, -25.26, -24.77, -21.35, -17.99, 0.000, 0.000, 0.000, 04:17:11.396
31, -20.70, -26.62, -18.31, -22.13, -25.08, -14.89, -16.70, -22.31, -19.02, -23.38, -14.08, -24.10, -25.26, -24.77, -21.35, -17.99, 0.000, 0.000, 0.000, 04:17:11.400
32, -20.70, -26.62, -18.31, -22.13, -25.08, -14.89, -16.70, -22.31, -18.82, -23.31, -13.84, -23.96, -25.19, -24.88, -21.26, -18.10, 0.000, 0.000, 0.000, 04:17:11.402
33, -20.85, -26.58, -18.62, -21.88, -25.12, -14.73, -16.96, -22.17, -18.82, -23.31, -13.84, -23.96, -25.19, -24.88, -21.26, -18.10, 0.000, 0.000, 0.000, 04:17:11.406
34, -20.85, -26.58, -18.62, -21.88, -25.12, -14.73, -16.96, -22.17, -19.16, -23.47, -13.86, -23.94, -25.44, -24.79, -20.90, -18.08, 0.000, 0.000, 0.000, 04:17:11.411
35, -20.70, -26.80, -18.73, -22.06, -25.01, -14.89, -16.70, -22.11, -19.16, -23.47, -13.86, -23.94, -25.44, -24.79, -20.90, -18.08, 0.000, 0.000, 0.000, 04:17:11.414
36, -20.70, -26.80, -18.73, -22.06, -25.01, -14.89, -16.70, -22.11, -18.91, -23.49, -13.99, -24.10, -25.44, -24.83, -21.08, -17.79, 0.000, 0.944, 0.304, 04:17:11.419
37, -20.83, -26.64, -18.69, -22.11, -25.10, -14.95, -16.72, -22.02, -18.91, -23.49, -13.99, -24.10, -25.44, -24.83, -21.08, -17.79, 0.000, 0.000, 0.000, 04:17:11.423
38, -20.83, -26.64, -18.69, -22.11, -25.10, -14.95, -16.72, -22.02, -18.93, -23.25, -13.81, -24.05, -25.26, -24.86, -21.21, -18.13, 0.000, 0.000, 0.000, 04:17:11.426
39, -20.79, -26.58, -18.73, -22.15, -25.08, -15.31, -16.88, -21.97, -18.93, -23.25, -13.81, -24.05, -25.26, -24.86, -21.21, -18.13, 0.000, 0.000, 0.000, 04:17:11.430
40, -20.79, -26.58, -18.73, -22.15, -25.08, -15.31, -16.88, -21.97, -18.86, -23.45, -13.84, -24.01, -25.35, -24.86, -21.39, -18.04, 0.000, 0.000, 0.000, 04:17:11.434
41, -20.76, -26.62, -18.46, -21.97, -25.03, -15.09, -16.70, -22.02, -18.86, -23.45, -13.84, -24.01, -25.35, -24.86, -21.39, -18.04, 0.000, 0.000, 0.000, 04:17:11.438
42, -20.76, -26.62, -18.46, -21.97, -25.03, -15.09, -16.70, -22.02, -18.93, -23.65, -14.04, -24.10, -25.48, -24.94, -21.23, -18.02, 0.000, 0.000, 0.000, 04:17:11.442
43, -20.74, -26.53, -18.60, -22.08, -25.03, -14.89, -16.58, -21.86, -18.93, -23.65, -14.04, -24.10, -25.48, -24.94, -21.23, -18.02, 0.000, 0.000, 0.000, 04:17:11.447
44, -20.74, -26.53, -18.60, -22.08, -25.03, -14.89, -16.58, -21.86, -18.91, -23.60, -13.99, -23.89, -25.30, -24.59, -21.32, -18.15, 0.000, 0.000, 0.000, 04:17:11.451
45, -20.88, -26.67, -18.69, -22.06, -24.90, -14.93, -16.72, -21.90, -18.91, -23.60, -13.99, -23.89, -25.30, -24.59, -21.32, -18.15, 0.000, 0.000, 0.000, 04:17:11.455
46, -20.88, -26.67, -18.69, -22.06, -24.90, -14.93, -16.72, -21.90, -18.91, -23.69, -14.08, -23.94, -25.39, -24.70, -21.46, -18.02, 0.006, 0.948, 0.304, 04:17:11.458
47, -20.92, -26.64, -18.62, -22.08, -25.01, -14.89, -16.72, -21.97, -18.91, -23.69, -14.08, -23.94, -25.39, -24.70, -21.46, -18.02, 0.000, 0.000, 0.000, 04:17:11.463
48, -20.92, -26.64, -18.62, -22.08, -25.01, -14.89, -16.72, -21.97, -18.66, -23.63, -13.95, -23.98, -25.55, -24.86, -21.12, -18.22, 0.000, 0.000, 0.000, 04:17:11.468
49, -20.72, -26.58, -18.64, -21.95, -25.06, -14.98, -16.74, -22.15, -18.66, -23.63, -13.95, -23.98, -25.55, -24.86, -21.12, -18.22, 0.000, 0.000, 0.000, 04:17:11.472
50, -20.72, -26.58, -18.64, -21.95, -25.06, -14.98, -16.74, -22.15, -18.80, -23.34, -13.88, -24.12, -25.35, -24.81, -21.06, -18.10, 0.000, 0.000, 0.000, 04:17:11.476
51, -20.76, -26.69, -18.53, -21.90, -25.06, -14.95, -16.58, -22.11, -18.80, -23.34, -13.88, -24.12, -25.35, -24.81, -21.06, -18.10, 0.000, 0.000, 0.000, 04:17:11.479
52, -20.76, -26.69, -18.53, -21.90, -25.06, -14.95, -16.58, -22.11, -18.86, -23.47, -13.81, -24.12, -25.48, -24.99, -21.21, -18.19, 0.000, 0.000, 0.000, 04:17:11.483
53, -20.76, -26.55, -18.73, -22.11, -25.24, -15.00, -16.72, -22.02, -18.86, -23.47, -13.81, -24.12, -25.48, -24.99, -21.21, -18.19, 0.000, 0.000, 0.000, 04:17:11.486
54, -20.76, -26.55, -18.73, -22.11, -25.24, -15.00, -16.72, -22.02, -18.93, -23.47, -13.75, -23.89, -25.37, -24.65, -21.32, -18.10, 0.000, 0.000, 0.000, 04:17:11.490
55, -20.76, -26.53, -18.57, -22.08, -25.26, -14.91, -16.74, -22.06, -18.93, -23.47, -13.75, -23.89, -25.37, -24.65, -21.32, -18.10, 0.010, 0.936, 0.288, 04:17:11.494
56, -20.76, -26.53, -18.57, -22.08, -25.26, -14.91, -16.74, -22.06, -18.86, -23.47, -13.95, -24.01, -25.37, -24.86, -21.21, -18.10, 0.000, 0.000, 0.000, 04:17:11.498
57, -20.74, -26.55, -18.51, -22.06, -25.17, -14.89, -16.83, -22.28, -18.86, -23.47, -13.95, -24.01, -25.37, -24.86, -21.21, -18.10, 0.000, 0.000, 0.000, 04:17:11.502
58, -20.74, -26.55, -18.51, -22.06, -25.17, -14.89, -16.83, -22.28, -18.84, -23.40, -13.95, -24.01, -25.28, -24.88, -21.03, -17.93, 0.000, 0.000, 0.000, 04:17:11.506
59, -20.70, -26.53, -18.55, -21.93, -25.15, -14.98, -16.83, -22.35, -18.84, -23.40, -13.95, -24.01, -25.28, -24.88, -21.03, -17.93, 0.000, 0.000, 0.000, 04:17:11.509
60, -20.70, -26.53, -18.55, -21.93, -25.15, -14.98, -16.83, -22.35, -18.80, -23.49, -13.77, -24.01, -25.24, -24.90, -21.21, -17.81, 0.000, 0.000, 0.000, 04:17:11.514
61, -20.72, -26.53, -18.57, -21.95, -25.03, -14.93, -16.61, -22.17, -18.80, -23.49, -13.77, -24.01, -25.24, -24.90, -21.21, -17.81, 0.000, 0.000, 0.000, 04:17:11.518
62, -20.72, -26.53, -18.57, -21.95, -25.03, -14.93, -16.61, -22.17, -19.07, -23.49, -13.81, -24.01, -25.50, -24.92, -21.37, -17.95, 0.000, 0.000, 0.000, 04:17:11.522
63, -20.74, -26.53, -18.40, -21.97, -25.10, -14.95, -16.72, -22.22, -19.07, -23.49, -13.81, -24.01, -25.50, -24.92, -21.37, -17.95, 0.000, 0.000, 0.000, 04:17:11.527
64, -20.74, -26.53, -18.40, -21.97, -25.10, -14.95, -16.72, -22.22, -18.64, -23.27, -13.88, -23.89, -25.26, -24.97, -21.21, -18.04, 0.000, 0.000, 0.000, 04:17:11.530
65, -20.74, -26.60, -18.46, -22.17, -24.79, -14.98, -16.81, -22.08, -18.64, -23.27, -13.88, -23.89, -25.26, -24.97, -21.21, -18.04, 0.008, 0.944, 0.320, 04:17:11.533
66, -20.74, -26.60, -18.46, -22.17, -24.79, -14.98, -16.81, -22.08, -18.84, -23.29, -13.95, -24.03, -25.50, -24.70, -21.17, -17.99, 0.000, 0.000, 0.000, 04:17:11.538
67, -20.94, -26.64, -18.51, -22.24, -24.97, -14.95, -16.83, -22.24, -18.84, -23.29, -13.95, -24.03, -25.50, -24.70, -21.17, -17.99, 0.000, 0.000, 0.000, 04:17:11.542
68, -20.94, -26.64, -18.51, -22.24, -24.97, -14.95, -16.83, -22.24, -18.98, -23.29, -14.06, -24.25, -25.44, -24.88, -21.41, -17.99, 0.000, 0.000, 0.000, 04:17:11.547
69, -20.90, -26.60, -18.37, -22.13, -25.17, -15.00, -16.81, -22.22, -18.98, -23.29, -14.06, -24.25, -25.44, -24.88, -21.41, -17.99, 0.000, 0.000, 0.000, 04:17:11.550
70, -20.90, -26.60, -18.37, -22.13, -25.17, -15.00, -16.81, -22.22, -18.98, -23.56, -14.04, -23.85, -25.30, -24.74, -21.28, -18.06, 0.000, 0.000, 0.000, 04:17:11.554
71, -20.70, -26.62, -18.46, -22.20, -24.97, -14.66, -16.79, -22.11, -18.98, -23.56, -14.04, -23.85, -25.30, -24.74, -21.28, -18.06, 0.000, 0.000, 0.000, 04:17:11.559
72, -20.70, -26.62, -18.46, -22.20, -24.97, -14.66, -16.79, -22.11, -18.80, -23.49, -13.84, -23.72, -25.10, -24.72, -21.23, -17.90, 0.000, 0.000, 0.000, 04:17:11.562
73, -20.76, -26.49, -18.60, -22.35, -24.99, -15.11, -16.54, -22.33, -18.80, -23.49, -13.84, -23.72, -25.10, -24.72, -21.23, -17.90, 0.000, 0.000, 0.000, 04:17:11.566
74, -20.76, -26.49, -18.60, -22.35, -24.99, -15.11, -16.54, -22.33, -18.84, -23.34, -13.97, -23.76, -25.37, -24.92, -21.21, -18.04, 0.000, 0.000, 0.000, 04:17:11.570
75, -20.83, -26.60, -18.78, -22.17, -24.90, -14.91, -16.61, -22.26, -18.84, -23.34, -13.97, -23.76, -25.37, -24.92, -21.21, -18.04, 0.004, 0.946, 0.320, 04:17:11.575
76, -20.83, -26.60, -18.78, -22.17, -24.90, -14.91, -16.61, -22.26, -18.82, -23.45, -13.97, -23.94, -25.46, -24.90, -21.08, -17.93, 0.000, 0.000, 0.000, 04:17:11.580
77, -20.50, -26.53, -18.64, -22.11, -24.81, -14.98, -16.85, -22.02, -18.82, -23.45, -13.97, -23.94, -25.46, -24.90, -21.08, -17.93, 0.000, 0.000, 0.000, 04:17:11.583
78, -20.50, -26.53, -18.64, -22.11, -24.81, -14.98, -16.85, -22.02, -18.78, -23.42, -13.86, -24.01, -25.57, -24.94, -21.39, -18.02, 0.000, 0.000, 0.000, 04:17:11.585
79, -20.70, -26.71, -18.53, -22.15, -25.01, -15.04, -16.70, -22.20, -18.78, -23.42, -13.86, -24.01, -25.57, -24.94, -21.39, -18.02, 0.000, 0.000, 0.000, 04:17:11.591
80, -20.70, -26.71, -18.53, -22.15, -25.01, -15.04, -16.70, -22.20, -18.55, -23.49, -13.95, -23.98, -25.12, -24.83, -21.17, -17.97, 0.000, 0.000, 0.000, 04:17:11.595
81, -20.72, -26.71, -18.42, -21.90, -25.06, -15.02, -16.90, -22.24, -18.55, -23.49, -13.95, -23.98, -25.12, -24.83, -21.17, -17.97, 0.000, 0.000, 0.000, 04:17:11.597
82, -20.72, -26.71, -18.42, -21.90, -25.06, -15.02, -16.90, -22.24, -18.82, -23.36, -14.04, -23.96, -25.32, -24.77, -21.30, -18.08, 0.000, 0.000, 0.000, 04:17:11.602
83, -20.94, -26.60, -18.71, -22.13, -25.12, -14.98, -16.79, -22.06, -18.82, -23.36, -14.04, -23.96, -25.32, -24.77, -21.30, -18.08, 0.000, 0.000, 0.000, 04:17:11.606
84, -20.94, -26.60, -18.71, -22.13, -25.12, -14.98, -16.79, -22.06, -18.80, -23.31, -14.06, -23.85, -25.55, -24.77, -21.28, -18.26, 0.000, 0.000, 0.000, 04:17:11.609
85, -20.94, -26.42, -18.55, -22.17, -24.97, -14.80, -16.81, -22.20, -18.80, -23.31, -14.06, -23.85, -25.55, -24.77, -21.28, -18.26, 0.008, 0.936, 0.304, 04:17:11.613
86, -20.94, -26.42, -18.55, -22.17, -24.97, -14.80, -16.81, -22.20, -18.98, -23.49, -13.84, -24.07, -25.37, -24.74, -21.01, -18.04, 0.000, 0.000, 0.000, 04:17:11.617
87, -20.70, -26.46, -18.53, -21.97, -24.90, -14.82, -16.61, -22.22, -18.98, -23.49, -13.84, -24.07, -25.37, -24.74, -21.01, -18.04, 0.000, 0.000, 0.000, 04:17:11.622
88, -20.70, -26.46, -18.53, -21.97, -24.90, -14.82, -16.61, -22.22, -18.86, -23.42, -14.15, -24.14, -25.53, -24.79, -21.21, -17.99, 0.000, 0.000, 0.000, 04:17:11.625
89, -20.85, -26.78, -18.51, -21.97, -25.08, -14.89, -16.96, -22.20, -18.86, -23.42, -14.15, -24.14, -25.53, -24.79, -21.21, -17.99, 0.000, 0.000, 0.000, 04:17:11.630
90, -20.85, -26.78, -18.51, -21.97, -25.08, -14.89, -16.96, -22.20, -18.93, -23.42, -13.90, -24.05, -25.44, -24.74, -21.19, -18.13, 0.000, 0.000, 0.000, 04:17:11.635
91, -20.74, -26.67, -18.53, -21.93, -25.15, -15.07, -16.79, -22.11, -18.93, -23.42, -13.90, -24.05, -25.44, -24.74, -21.19, -18.13, 0.000, 0.000, 0.000, 04:17:11.637
92, -20.74, -26.67, -18.53, -21.93, -25.15, -15.07, -16.79, -22.11, -18.95, -23.49, -13.95, -23.94, -25.30, -24.90, -21.19, -18.04, 0.000, 0.000, 0.000, 04:17:11.641
93, -20.50, -26.49, -18.48, -21.93, -24.92, -15.02, -16.85, -22.17, -18.95, -23.49, -13.95, -23.94, -25.30, -24.90, -21.19, -18.04, 0.000, 0.000, 0.000, 04:17:11.645
94, -20.50, -26.49, -18.48, -21.93, -24.92, -15.02, -16.85, -22.17, -18.84, -23.29, -13.99, -23.76, -25.59, -25.01, -21.35, -18.13, 0.000, 0.000, 0.000, 04:17:11.649
95, -20.59, -26.58, -18.44, -22.20, -25.03, -14.82, -16.85, -22.13, -18.84, -23.29, -13.99, -23.76, -25.59, -25.01, -21.35, -18.13, 0.006, 0.934, 0.304, 04:17:11.654
96, -20.59, -26.58, -18.44, -22.20, -25.03, -14.82, -16.85, -22.13, -19.07, -23.38, -13.88, -24.03, -25.32, -25.01, -21.26, -18.08, 0.000, 0.000, 0.000, 04:17:11.659
97, -20.68, -26.58, -18.51, -21.99, -24.86, -14.89, -16.70, -22.11, -19.07, -23.38, -13.88, -24.03, -25.32, -25.01, -21.26, -18.08, 0.000, 0.000, 0.000, 04:17:11.662
98, -20.68, -26.58, -18.51, -21.99, -24.86, -14.89, -16.70, -22.11, -18.82, -23.54, -13.95, -23.87, -25.37, -24.83, -21.19, -18.10, 0.000, 0.000, 0.000, 04:17:11.666
99, -20.79, -26.64, -18.60, -21.93, -25.06, -15.11, -16.81, -22.20, -18.82, -23.54, -13.95, -23.87, -25.37, -24.83, -21.19, -18.10, 0.000, 0.000, 0.000, 04:17:11.669
100, -20.79, -26.64, -18.60, -21.93, -25.06, -15.11, -16.81, -22.20, -18.82, -23.65, -13.95, -23.94, -25.21, -24.83, -21.19, -17.86, 0.000, 0.000, 0.000, 04:17:11.673
101, -20.76, -26.71, -18.42, -21.99, -24.97, -15.22, -16.70, -22.20, -18.82, -23.65, -13.95, -23.94, -25.21, -24.83, -21.19, -17.86, 0.000, 0.000, 0.000, 04:17:11.678
102, -20.76, -26.71, -18.42, -21.99, -24.97, -15.22, -16.70, -22.20, -18.57, -23.56, -13.86, -23.87, -25.24, -24.74, -21.23, -18.10, 0.000, 0.000, 0.000, 04:17:11.681
103, -20.85, -26.58, -18.53, -22.13, -25.03, -14.98, -16.81, -21.90, -18.57, -23.56, -13.86, -23.87, -25.24, -24.74, -21.23, -18.10, 0.000, 0.000, 0.000, 04:17:11.686
104, -20.85, -26.58, -18.53, -22.13, -25.03, -14.98, -16.81, -21.90, -18.84, -23.42, -13.90, -23.89, -25.32, -24.79, -21.10, -17.93, 0.000, 0.000, 0.000, 04:17:11.690
105, -20.72, -26.46, -18.64, -22.15, -25.03, -14.98, -16.56, -21.99, -18.84, -23.42, -13.90, -23.89, -25.32, -24.79, -21.10, -17.93, 0.006, 0.936, 0.312, 04:17:11.693
106, -20.72, -26.46, -18.64, -22.15, -25.03, -14.98, -16.56, -21.99, -19.00, -23.56, -13.97, -23.87, -25.24, -24.86, -21.23, -18.04, 0.000, 0.000, 0.000, 04:17:11.698
107, -20.65, -26.55, -18.69, -22.17, -24.97, -14.91, -16.50, -22.22, -19.00, -23.56, -13.97, -23.87, -25.24, -24.86, -21.23, -18.04, 0.000, 0.000, 0.000, 04:17:11.701
108, -20.65, -26.55, -18.69, -22.17, -24.97, -14.91, -16.50, -22.22, -18.89, -23.36, -13.97, -23.80, -25.41, -25.21, -21.30, -17.99, 0.000, 0.000, 0.000, 04:17:11.705
109, -20.79, -26.64, -18.51, -21.93, -25.19, -15.04, -16.72, -22.02, -18.89, -23.36, -13.97, -23.80, -25.41, -25.21, -21.30, -17.99, 0.000, 0.000, 0.000, 04:17:11.710
110, -20.79, -26.64, -18.51, -21.93, -25.19, -15.04, -16.72, -22.02, -18.86, -23.56, -13.97, -23.80, -25.35, -25.01, -21.26, -18.04, 0.000, 0.000, 0.000, 04:17:11.716
111, -20.61, -26.58, -18.64, -22.26, -25.26, -15.02, -16.74, -22.17, -18.86, -23.56, -13.97, -23.80, -25.35, -25.01, -21.26, -18.04, 0.000, 0.000, 0.000, 04:17:11.719
112, -20.61, -26.58, -18.64, -22.26, -25.26, -15.02, -16.74, -22.17, -18.84, -23.42, -14.06, -23.76, -25.35, -25.12, -21.30, -18.04, 0.000, 0.000, 0.000, 04:17:11.723
113, -20.72, -26.78, -18.60, -22.11, -25.06, -15.18, -16.63, -22.13, -18.84, -23.42, -14.06, -23.76, -25.35, -25.12, -21.30, -18.04, 0.000, 0.000, 0.000, 04:17:11.725
114, -20.72, -26.78, -18.60, -22.11, -25.06, -15.18, -16.63, -22.13, -18.93, -23.42, -13.93, -23.89, -25.48, -24.81, -21.14, -18.13, 0.000, 0.000, 0.000, 04:17:11.730
115, -20.79, -26.42, -18.48, -21.97, -25.03, -15.02, -16.74, -21.97, -18.93, -23.42, -13.93, -23.89, -25.48, -24.81, -21.14, -18.13, 0.002, 0.928, 0.290, 04:17:11.733
116, -20.79, -26.42, -18.48, -21.97, -25.03, -15.02, -16.74, -21.97, -19.07, -23.56, -13.77, -23.96, -25.32, -24.81, -21.23, -17.99, 0.000, 0.000, 0.000, 04:17:11.737
117, -20.70, -26.62, -18.53, -22.22, -25.03, -15.07, -16.81, -22.13, -19.07, -23.56, -13.77, -23.96, -25.32, -24.81, -21.23, -17.99, 0.000, 0.000, 0.000, 04:17:11.743
118, -20.70, -26.62, -18.53, -22.22, -25.03, -15.07, -16.81, -22.13, -18.95, -23.45, -13.93, -24.16, -25.35, -24.88, -21.10, -18.08, 0.000, 0.000, 0.000, 04:17:11.745
119, -20.72, -26.64, -18.57, -22.17, -24.99, -15.20, -16.74, -21.90, -18.95, -23.45, -13.93, -24.16, -25.35, -24.88, -21.10, -18.08, 0.000, 0.000, 0.000, 04:17:11.749
120, -20.72, -26.64, -18.57, -22.17, -24.99, -15.20, -16.74, -21.90, -19.00, -23.45, -14.08, -24.03, -25.53, -24.70, -21.17, -18.13, 0.000, 0.000, 0.000, 04:17:11.753
121, -20.79, -26.60, -18.66, -22.13, -24.92, -15.09, -16.76, -21.97, -19.00, -23.45, -14.08, -24.03, -25.53, -24.70, -21.17, -18.13, 0.000, 0.000, 0.000, 04:17:11.758
122, -20.79, -26.60, -18.66, -22.13, -24.92, -15.09, -16.76, -21.97, -18.82, -23.54, -13.81, -23.85, -25.44, -24.68, -21.21, -18.10, 0.000, 0.000, 0.000, 04:17:11.762
123, -20.63, -26.78, -18.51, -22.13, -25.01, -14.93, -16.67, -22.24, -18.82, -23.54, -13.81, -23.85, -25.44, -24.68, -21.21, -18.10, 0.000, 0.000, 0.000, 04:17:11.765
124, -20.63, -26.78, -18.51, -22.13, -25.01, -14.93, -16.67, -22.24, -18.75, -23.69, -13.99, -24.01, -25.39, -24.88, -21.12, -18.10, 0.004, 0.928, 0.298, 04:17:11.771
125, -20.79, -26.62, -18.62, -22.02, -24.83, -15.11, -16.56, -22.20, -18.75, -23.69, -13.99, -24.01, -25.39, -24.88, -21.12, -18.10, 0.000, 0.000, 0.000, 04:17:11.773
126, -20.79, -26.62, -18.62, -22.02, -24.83, -15.11, -16.56, -22.20, -18.95, -23.51, -13.97, -23.96, -25.39, -25.08, -21.30, -17.86, 0.000, 0.000, 0.000, 04:17:11.777
127, -20.72, -26.58, -18.55, -22.26, -25.03, -15.11, -16.65, -22.33, -18.95, -23.51, -13.97, -23.96, -25.39, -25.08, -21.30, -17.86, 0.000, 0.000, 0.000, 04:17:11.782
128, -20.72, -26.58, -18.55, -22.26, -25.03, -15.11, -16.65, -22.33, -18.69, -23.38, -13.79, -23.78, -25.39, -24.88, -21.14, -17.97, 0.000, 0.000, 0.000, 04:17:11.785
129, -20.92, -26.67, -18.51, -22.02, -25.21, -15.15, -16.74, -22.08, -18.69, -23.38, -13.79, -23.78, -25.39, -24.88, -21.14, -17.97, 0.000, 0.000, 0.000, 04:17:11.790
130, -20.92, -26.67, -18.51, -22.02, -25.21, -15.15, -16.74, -22.08, -18.93, -23.63, -13.81, -23.80, -25.62, -24.63, -21.26, -17.90, 0.000, 0.000, 0.000, 04:17:11.793
131, -20.79, -26.91, -18.40, -21.97, -25.12, -14.84, -16.67, -22.06, -18.93, -23.63, -13.81, -23.80, -25.62, -24.63, -21.26, -17.90, 0.000, 0.000, 0.000, 04:17:11.798
132, -20.79, -26.91, -18.40, -21.97, -25.12, -14.84, -16.67, -22.06, -19.04, -23.31, -13.93, -24.05, -25.41, -24.65, -21.14, -18.06, 0.000, 0.000, 0.000, 04:17:11.800
133, -20.70, -26.76, -18.62, -21.95, -25.01, -14.93, -16.67, -21.97, -19.04, -23.31, -13.93, -24.05, -25.41, -24.65, -21.14, -18.06, 0.000, 0.000, 0.000, 04:17:11.805
134, -20.70, -26.76, -18.62, -21.95, -25.01, -14.93, -16.67, -21.97, -19.11, -23.38, -13.84, -24.21, -25.44, -24.79, -21.32, -18.10, 0.000, 0.928, 0.320, 04:17:11.810
135, -20.68, -26.71, -18.37, -22.04, -24.99, -14.91, -16.58, -21.97, -19.11, -23.38, -13.84, -24.21, -25.44, -24.79, -21.32, -18.10, 0.000, 0.000, 0.000, 04:17:11.813
136, -20.68, -26.71, -18.37, -22.04, -24.99, -14.91, -16.58, -21.97, -18.84, -23.47, -13.95, -23.96, -25.37, -24.86, -21.30, -18.13, 0.000, 0.000, 0.000, 04:17:11.818
137, -20.79, -26.69, -18.33, -21.93, -25.01, -14.77, -16.63, -22.37, -18.84, -23.47, -13.95, -23.96, -25.37, -24.86, -21.30, -18.13, 0.000, 0.000, 0.000, 04:17:11.822
138, -20.79, -26.69, -18.33, -21.93, -25.01, -14.77, -16.63, -22.37, -19.04, -23.45, -14.04, -24.14, -25.30, -24.83, -21.32, -17.99, 0.000, 0.000, 0.000, 04:17:11.825
139, -20.52, -26.60, -18.51, -22.08, -25.01, -14.84, -16.79, -22.15, -19.04, -23.45, -14.04, -24.14, -25.30, -24.83, -21.32, -17.99, 0.000, 0.000, 0.000, 04:17:11.829
140, -20.52, -26.60, -18.51, -22.08, -25.01, -14.84, -16.79, -22.15, -18.78, -23.49, -13.68, -23.96, -25.30, -24.83, -21.19, -17.95, 0.000, 0.000, 0.000, 04:17:11.832
141, -20.74, -26.64, -18.48, -22.13, -25.19, -14.91, -16.76, -22.11, -18.78, -23.49, -13.68, -23.96, -25.30, -24.83, -21.19, -17.95, 0.000, 0.000, 0.000, 04:17:11.838
142, -20.74, -26.64, -18.48, -22.13, -25.19, -14.91, -16.76, -22.11, -18.66, -23.49, -13.72, -23.83, -25.35, -24.90, -21.28, -18.08, 0.000, 0.000, 0.000, 04:17:11.842
143, -20.52, -26.60, -18.48, -21.99, -25.10, -15.04, -16.72, -22.28, -18.66, -23.49, -13.72, -23.83, -25.35, -24.90, -21.28, -18.08, 0.000, 0.000, 0.000, 04:17:11.846
144, -20.52, -26.60, -18.48, -21.99, -25.10, -15.04, -16.72, -22.28, -18.82, -23.31, -13.93, -24.12, -25.39, -24.79, -21.26, -18.10, 0.000, 0.936, 0.334, 04:17:11.849
145, -20.81, -26.46, -18.48, -22.06, -24.92, -14.89, -16.61, -21.97, -18.82, -23.31, -13.93, -24.12, -25.39, -24.79, -21.26, -18.10, 0.000, 0.000, 0.000, 04:17:11.853
146, -20.81, -26.46, -18.48, -22.06, -24.92, -14.89, -16.61, -21.97, -18.86, -23.38, -13.95, -24.05, -25.46, -24.70, -21.17, -18.08, 0.000, 0.000, 0.000, 04:17:11.856
147, -20.90, -26.38, -18.51, -21.99, -25.01, -15.00, -16.67, -21.88, -18.86, -23.38, -13.95, -24.05, -25.46, -24.70, -21.17, -18.08, 0.000, 0.000, 0.000, 04:17:11.862
148, -20.90, -26.38, -18.51, -21.99, -25.01, -15.00, -16.67, -21.88, -18.73, -23.22, -14.17, -24.01, -25.30, -24.74, -21.23, -17.97, 0.000, 0.000, 0.000, 04:17:11.866
149, -20.92, -26.46, -18.42, -22.22, -24.99, -14.93, -16.65, -22.08, -18.73, -23.22, -14.17, -24.01, -25.30, -24.74, -21.23, -17.97, 0.000, 0.000, 0.000, 04:17:11.870
150, -20.92, -26.46, -18.42, -22.22, -24.99, -14.93, -16.65, -22.08, -18.91, -23.40, -13.70, -23.92, -25.39, -24.90, -21.19, -18.10, 0.000, 0.000, 0.000, 04:17:11.873
151, -20.76, -26.38, -18.60, -22.31, -25.01, -14.82, -16.67, -22.08, -18.91, -23.40, -13.70, -23.92, -25.39, -24.90, -21.19, -18.10, 0.000, 0.000, 0.000, 04:17:11.878
152, -20.76, -26.38, -18.60, -22.31, -25.01, -14.82, -16.67, -22.08, -18.73, -23.38, -13.70, -24.01, -25.35, -24.72, -21.28, -18.10, 0.000, 0.000, 0.000, 04:17:11.880
153, -20.72, -26.73, -18.37, -22.31, -24.92, -14.82, -16.85, -22.33, -18.73, -23.38, -13.70, -24.01, -25.35, -24.72, -21.28, -18.10, 0.000, 0.000, 0.000, 04:17:11.885
154, -20.72, -26.73, -18.37, -22.31, -24.92, -14.82, -16.85, -22.33, -18.66, -23.45, -13.90, -24.10, -25.26, -25.06, -21.12, -18.04, 0.006, 0.924, 0.312, 04:17:11.889
155, -20.70, -26.44, -18.40, -22.26, -25.21, -15.09, -16.90, -22.20, -18.66, -23.45, -13.90, -24.10, -25.26, -25.06, -21.12, -18.04, 0.000, 0.000, 0.000, 04:17:11.893
156, -20.70, -26.44, -18.40, -22.26, -25.21, -15.09, -16.90, -22.20, -18.86, -23.51, -13.86, -23.85, -25.24, -24.99, -20.99, -17.77, 0.000, 0.000, 0.000, 04:17:11.897
157, -20.74, -26.62, -18.46, -22.13, -25.10, -15.04, -16.88, -22.02, -18.86, -23.51, -13.86, -23.85, -25.24, -24.99, -20.99, -17.77, 0.000, 0.000, 0.000, 04:17:11.902
158, -20.74, -26.62, -18.46, -22.13, -25.10, -15.04, -16.88, -22.02, -18.82, -23.51, -13.97, -23.76, -25.46, -24.68, -21.21, -18.24, 0.000, 0.000, 0.000, 04:17:11.904
159, -20.85, -26.80, -18.73, -22.15, -25.12, -14.98, -16.88, -22.20, -18.82, -23.51, -13.97, -23.76, -25.46, -24.68, -21.21, -18.24, 0.000, 0.000, 0.000, 04:17:11.909
160, -20.85, -26.80, -18.73, -22.15, -25.12, -14.98, -16.88, -22.20, -18.89, -23.60, -14.15, -23.80, -25.41, -24.61, -21.32, -18.10, 0.000, 0.000, 0.000, 04:17:11.913
161, -20.76, -26.60, -18.60, -22.06, -25.06, -14.84, -16.67, -22.17, -18.89, -23.60, -14.15, -23.80, -25.41, -24.61, -21.32, -18.10, 0.000, 0.000, 0.000, 04:17:11.917
162, -20.76, -26.60, -18.60, -22.06, -25.06, -14.84, -16.67, -22.17, -18.78, -23.54, -14.10, -23.83, -25.41, -24.77, -21.44, -18.24, 0.000, 0.000, 0.000, 04:17:11.921
163, -20.94, -26.78, -18.64, -22.24, -25.03, -15.04, -16.90, -22.24, -18.78, -23.54, -14.10, -23.83, -25.41, -24.77, -21.44, -18.24, 0.000, 0.000, 0.000, 04:17:11.926
164, -20.94, -26.78, -18.64, -22.24, -25.03, -15.04, -16.90, -22.24, -18.84, -23.20, -13.90, -24.10, -25.32, -24.70, -21.28, -18.13, 0.006, 0.922, 0.304, 04:17:11.929
165, -20.72, -26.69, -18.40, -22.04, -25.10, -14.86, -16.76, -22.11, -18.84, -23.20, -13.90, -24.10, -25.32, -24.70, -21.28, -18.13, 0.000, 0.000, 0.000, 04:17:11.933
166, -20.72, -26.69, -18.40, -22.04, -25.10, -14.86, -16.76, -22.11, -18.91, -23.58, -13.93, -23.94, -25.39, -24.77, -21.23, -18.13, 0.000, 0.000, 0.000, 04:17:11.936
167, -20.74, -26.76, -18.37, -22.08, -24.97, -15.09, -16.79, -22.02, -18.91, -23.58, -13.93, -23.94, -25.39, -24.77, -21.23, -18.13, 0.000, 0.000, 0.000, 04:17:11.941
168, -20.74, -26.76, -18.37, -22.08, -24.97, -15.09, -16.79, -22.02, -18.93, -23.34, -13.86, -23.74, -25.46, -24.88, -21.37, -18.19, 0.000, 0.000, 0.000, 04:17:11.945
169, -20.54, -26.55, -18.53, -22.13, -24.99, -15.00, -16.63, -22.17, -18.93, -23.34, -13.86, -23.74, -25.46, -24.88, -21.37, -18.19, 0.000, 0.000, 0.000, 04:17:11.948
170, -20.54, -26.55, -18.53, -22.13, -24.99, -15.00, -16.63, -22.17, -19.00, -23.54, -13.99, -24.01, -25.41, -24.70, -21.21, -18.06, 0.000, 0.000, 0.000, 04:17:11.954
171, -20.70, -26.73, -18.64, -22.11, -24.94, -15.04, -16.79, -22.20, -19.00, -23.54, -13.99, -24.01, -25.41, -24.70, -21.21, -18.06, 0.000, 0.000, 0.000, 04:17:11.958
172, -20.70, -26.73, -18.64, -22.11, -24.94, -15.04, -16.79, -22.20, -18.95, -23.54, -13.99, -23.92, -25.41, -24.77, -21.10, -17.99, 0.000, 0.000, 0.000, 04:17:11.961
173, -20.94, -26.58, -18.64, -22.11, -25.15, -15.02, -16.79, -22.31, -18.95, -23.54, -13.99, -23.92, -25.41, -24.77, -21.10, -17.99, 0.000, 0.000, 0.000, 04:17:11.965
174, -20.94, -26.58, -18.64, -22.11, -25.15, -15.02, -16.79, -22.31, -18.98, -23.42, -13.75, -23.92, -25.66, -24.88, -21.10, -17.99, 0.002, 0.942, 0.324, 04:17:11.969
175, -20.74, -26.73, -18.44, -22.02, -24.99, -15.13, -16.63, -22.17, -18.98, -23.42, -13.75, -23.92, -25.66, -24.88, -21.10, -17.99, 0.000, 0.000, 0.000, 04:17:11.973
176, -20.74, -26.73, -18.44, -22.02, -24.99, -15.13, -16.63, -22.17, -19.07, -23.20, -13.75, -23.98, -25.35, -24.90, -21.19, -18.06, 0.000, 0.000, 0.000, 04:17:11.977
177, -20.90, -26.38, -18.35, -22.11, -24.94, -14.95, -16.67, -22.13, -19.07, -23.20, -13.75, -23.98, -25.35, -24.90, -21.19, -18.06, 0.000, 0.000, 0.000, 04:17:11.982
178, -20.90, -26.38, -18.35, -22.11, -24.94, -14.95, -16.67, -22.13, -19.07, -23.47, -13.88, -23.89, -25.48, -24.81, -21.19, -18.22, 0.000, 0.000, 0.000, 04:17:11.984
179, -20.79, -26.46, -18.55, -22.17, -24.90, -14.89, -16.67, -22.02, -19.07, -23.47, -13.88, -23.89, -25.48, -24.81, -21.19, -18.22, 0.000, 0.000, 0.000, 04:17:11.989
180, -20.79, -26.46, -18.55, -22.17, -24.90, -14.89, -16.67, -22.02, -18.75, -23.63, -13.88, -24.07, -25.26, -24.94, -21.28, -18.17, 0.000, 0.000, 0.000, 04:17:11.993
181, -20.68, -26.73, -18.46, -22.24, -25.12, -14.95, -16.63, -22.22, -18.75, -23.63, -13.88, -24.07, -25.26, -24.94, -21.28, -18.17, 0.000, 0.000, 0.000, 04:17:11.996
182, -20.68, -26.73, -18.46, -22.24, -25.12, -14.95, -16.63, -22.22, -18.75, -23.63, -13.97, -23.92, -25.46, -24.72, -21.23, -17.88, 0.000, 0.000, 0.000, 04:17:12.001
183, -20.61, -26.64, -18.42, -21.93, -24.83, -15.04, -16.67, -22.26, -18.75, -23.63, -13.97, -23.92, -25.46, -24.72, -21.23, -17.88, 0.004, 0.952, 0.318, 04:17:12.007
184, -20.61, -26.64, -18.42, -21.93, -24.83, -15.04, -16.67, -22.26, -18.86, -23.54, -13.88, -23.76, -25.37, -24.86, -21.10, -18.10, 0.000, 0.000, 0.000, 04:17:12.010
185, -20.43, -26.69, -18.53, -22.24, -24.97, -14.89, -16.67, -21.97, -18.86, -23.54, -13.88, -23.76, -25.37, -24.86, -21.10, -18.10, 0.000, 0.000, 0.000, 04:17:12.013
186, -20.43, -26.69, -18.53, -22.24, -24.97, -14.89, -16.67, -21.97, -18.89, -23.27, -14.01, -23.94, -25.48, -24.81, -21.21, -17.90, 0.000, 0.000, 0.000, 04:17:12.016
187, -20.97, -26.62, -18.69, -22.17, -24.90, -14.75, -16.81, -21.97, -18.89, -23.27, -14.01, -23.94, -25.48, -24.81, -21.21, -17.90, 0.000, 0.000, 0.000, 04:17:12.021
188, -20.97, -26.62, -18.69, -22.17, -24.90, -14.75, -16.81, -21.97, -18.86, -23.40, -13.86, -23.89, -25.62, -24.86, -21.30, -17.93, 0.000, 0.000, 0.000, 04:17:12.025
189, -20.99, -26.69, -18.69, -22.06, -25.15, -14.82, -16.67, -22.26, -18.86, -23.40, -13.86, -23.89, -25.62, -24.86, -21.30, -17.93, 0.000, 0.000, 0.000, 04:17:12.029
190, -20.99, -26.69, -18.69, -22.06, -25.15, -14.82, -16.67, -22.26, -19.07, -23.45, -13.99, -23.83, -25.39, -24.61, -21.23, -18.02, 0.000, 0.000, 0.000, 04:17:12.033
191, -20.90, -26.67, -18.33, -22.04, -25.28, -15.04, -16.72, -22.22, -19.07, -23.45, -13.99, -23.83, -25.39, -24.61, -21.23, -18.02, 0.000, 0.000, 0.000, 04:17:12.038
192, -20.90, -26.67, -18.33, -22.04, -25.28, -15.04, -16.72, -22.22, -18.95, -23.60, -14.04, -24.07, -25.15, -24.86, -21.41, -18.02, 0.000, 0.000, 0.000, 04:17:12.041
193, -20.99, -26.58, -18.51, -21.99, -25.06, -15.07, -16.83, -22.17, -18.95, -23.60, -14.04, -24.07, -25.15, -24.86, -21.41, -18.02, 0.002, 0.940, 0.282, 04:17:12.044
194, -20.99, -26.58, -18.51, -21.99, -25.06, -15.07, -16.83, -22.17, -18.78, -23.20, -13.99, -24.03, -25.35, -24.99, -21.32, -18.15, 0.000, 0.000, 0.000, 04:17:12.048
195, -20.85, -26.55, -18.60, -22.06, -25.01, -15.02, -16.63, -22.22, -18.78, -23.20, -13.99, -24.03, -25.35, -24.99, -21.32, -18.15, 0.000, 0.000, 0.000, 04:17:12.053
196, -20.85, -26.55, -18.60, -22.06, -25.01, -15.02, -16.63, -22.22, -18.82, -23.42, -13.88, -23.74, -25.50, -24.83, -21.06, -18.02, 0.000, 0.000, 0.000, 04:17:12.057
197, -20.85, -26.67, -18.55, -21.99, -25.06, -15.18, -16.58, -22.20, -18.82, -23.42, -13.88, -23.74, -25.50, -24.83, -21.06, -18.02, 0.000, 0.000, 0.000, 04:17:12.061
198, -20.85, -26.67, -18.55, -21.99, -25.06, -15.18, -16.58, -22.20, -18.93, -23.36, -13.95, -24.25, -25.44, -24.79, -21.12, -18.08, 0.000, 0.000, 0.000, 04:17:12.066
199, -20.83, -26.46, -18.46, -21.97, -25.21, -14.91, -16.63, -22.31, -18.93, -23.36, -13.95, -24.25, -25.44, -24.79, -21.12, -18.08, 0.000, 0.000, 0.000, 04:17:12.069
200, -20.83, -26.46, -18.46, -21.97, -25.21, -14.91, -16.63, -22.31, -18.89, -23.60, -13.99, -23.98, -25.48, -24.72, -21.19, -17.97, 0.000, 0.000, 0.000, 04:17:12.072
201, -20.79, -26.53, -18.37, -22.20, -24.92, -14.84, -16.79, -21.95, -18.89, -23.60, -13.99, -23.98, -25.48, -24.72, -21.19, -17.97, 0.000, 0.000, 0.000, 04:17:12.077
202, -20.79, -26.53, -18.37, -22.20, -24.92, -14.84, -16.79, -21.95, -18.82, -23.36, -13.79, -24.07, -25.30, -25.03, -21.06, -17.93, 0.000, 0.000, 0.000, 04:17:12.081
203, -20.90, -26.60, -18.53, -22.13, -25.12, -14.98, -16.94, -21.90, -18.82, -23.36, -13.79, -24.07, -25.30, -25.03, -21.06, -17.93, 0.004, 0.940, 0.304, 04:17:12.084
204, -20.90, -26.60, -18.53, -22.13, -25.12, -14.98, -16.94, -21.90, -18.78, -23.49, -13.84, -24.01, -25.24, -24.90, -21.26, -18.15, 0.000, 0.000, 0.000, 04:17:12.089
205, -20.85, -26.67, -18.62, -21.99, -24.94, -14.95, -16.85, -21.97, -18.78, -23.49, -13.84, -24.01, -25.24, -24.90, -21.26, -18.15, 0.000, 0.000, 0.000, 04:17:12.091
206, -20.85, -26.67, -18.62, -21.99, -24.94, -14.95, -16.85, -21.97, -18.91, -23.58, -13.86, -23.94, -25.10, -24.97, -21.39, -17.99, 0.000, 0.000, 0.000, 04:17:12.096
207, -20.56, -26.58, -18.60, -22.02, -25.10, -14.91, -16.90, -22.06, -18.91, -23.58, -13.86, -23.94, -25.10, -24.97, -21.39, -17.99, 0.000, 0.000, 0.000, 04:17:12.100
208, -20.56, -26.58, -18.60, -22.02, -25.10, -14.91, -16.90, -22.06, -19.00, -23.51, -14.06, -23.98, -25.62, -24.86, -21.52, -17.93, 0.000, 0.000, 0.000, 04:17:12.105
209, -20.81, -26.73, -18.84, -22.02, -25.12, -14.98, -16.74, -21.73, -19.00, -23.51, -14.06, -23.98, -25.62, -24.86, -21.52, -17.93, 0.000, 0.000, 0.000, 04:17:12.109
210, -20.81, -26.73, -18.84, -22.02, -25.12, -14.98, -16.74, -21.73, -19.09, -23.65, -13.93, -23.94, -25.48, -24.81, -21.21, -18.06, 0.000, 0.000, 0.000, 04:17:12.113
211, -20.72, -26.62, -18.75, -21.99, -25.06, -14.77, -16.74, -22.02, -19.09, -23.65, -13.93, -23.94, -25.48, -24.81, -21.21, -18.06, 0.000, 0.000, 0.000, 04:17:12.118
212, -20.72, -26.62, -18.75, -21.99, -25.06, -14.77, -16.74, -22.02, -18.84, -23.51, -13.95, -24.03, -25.50, -24.81, -21.37, -18.26, 0.000, 0.000, 0.000, 04:17:12.122
213, -20.81, -26.80, -18.42, -22.08, -25.10, -15.00, -16.70, -22.02, -18.84, -23.51, -13.95, -24.03, -25.50, -24.81, -21.37, -18.26, 0.006, 0.934, 0.314, 04:17:12.125
214, -20.81, -26.80, -18.42, -22.08, -25.10, -15.00, -16.70, -22.02, -19.11, -23.51, -13.86, -23.83, -25.28, -24.83, -21.35, -18.31, 0.000, 0.000, 0.000, 04:17:12.127
215, -20.76, -26.49, -18.55, -21.95, -25.21, -14.80, -16.61, -22.02, -19.11, -23.51, -13.86, -23.83, -25.28, -24.83, -21.35, -18.31, 0.000, 0.000, 0.000, 04:17:12.132
216, -20.76, -26.49, -18.55, -21.95, -25.21, -14.80, -16.61, -22.02, -18.89, -23.36, -13.88, -23.98, -25.44, -24.70, -21.30, -17.97, 0.000, 0.000, 0.000, 04:17:12.137
217, -20.81, -26.71, -18.60, -22.24, -25.03, -14.98, -16.67, -22.26, -18.89, -23.36, -13.88, -23.98, -25.44, -24.70, -21.30, -17.97, 0.000, 0.000, 0.000, 04:17:12.141
218, -20.81, -26.71, -18.60, -22.24, -25.03, -14.98, -16.67, -22.26, -18.95, -23.54, -14.06, -23.96, -25.35, -24.77, -21.41, -17.93, 0.000, 0.000, 0.000, 04:17:12.145
219, -20.94, -26.42, -18.62, -22.20, -24.81, -14.89, -16.76, -22.04, -18.95, -23.54, -14.06, -23.96, -25.35, -24.77, -21.41, -17.93, 0.000, 0.000, 0.000, 04:17:12.148
220, -20.94, -26.42, -18.62, -22.20, -24.81, -14.89, -16.76, -22.04, -18.86, -23.54, -13.88, -23.92, -25.48, -24.79, -21.01, -18.06, 0.000, 0.000, 0.000, 04:17:12.152
221, -20.90, -26.60, -18.78, -22.11, -25.01, -14.95, -16.79, -21.99, -18.86, -23.54, -13.88, -23.92, -25.48, -24.79, -21.01, -18.06, 0.000, 0.000, 0.000, 04:17:12.156
222, -20.90, -26.60, -18.78, -22.11, -25.01, -14.95, -16.79, -21.99, -18.80, -23.49, -13.70, -23.96, -25.64, -24.81, -21.19, -18.13, 0.000, 0.000, 0.000, 04:17:12.160
223, -20.76, -26.67, -18.69, -22.15, -25.15, -15.04, -16.79, -22.22, -18.80, -23.49, -13.70, -23.96, -25.64, -24.81, -21.19, -18.13, 0.006, 0.932, 0.314, 04:17:12.165
224, -20.76, -26.67, -18.69, -22.15, -25.15, -15.04, -16.79, -22.22, -19.04, -23.34, -13.97, -23.98, -25.17, -24.81, -21.17, -18.10, 0.000, 0.000, 0.000, 04:17:12.169
225, -20.85, -26.76, -18.55, -21.88, -25.08, -15.07, -16.74, -22.15, -19.04, -23.34, -13.97, -23.98, -25.17, -24.81, -21.17, -18.10, 0.000, 0.000, 0.000, 04:17:12.173
226, -20.85, -26.76, -18.55, -21.88, -25.08, -15.07, -16.74, -22.15, -18.95, -23.25, -13.75, -23.94, -25.41, -24.65, -21.19, -18.17, 0.000, 0.000, 0.000, 04:17:12.176
227, -20.72, -26.67, -18.60, -21.95, -24.88, -15.00, -16.74, -22.17, -18.95, -23.25, -13.75, -23.94, -25.41, -24.65, -21.19, -18.17, 0.000, 0.000, 0.000, 04:17:12.180
228, -20.72, -26.67, -18.60, -21.95, -24.88, -15.00, -16.74, -22.17, -18.89, -23.58, -13.72, -24.03, -25.26, -24.97, -21.06, -18.17, 0.000, 0.000, 0.000, 04:17:12.184
229, -20.72, -26.58, -18.48, -21.97, -24.74, -14.84, -16.74, -22.17, -18.89, -23.58, -13.72, -24.03, -25.26, -24.97, -21.06, -18.17, 0.000, 0.000, 0.000, 04:17:12.188
230, -20.72, -26.58, -18.48, -21.97, -24.74, -14.84, -16.74, -22.17, -18.98, -23.51, -13.90, -24.01, -25.44, -24.79, -21.06, -18.13, 0.000, 0.000, 0.000, 04:17:12.193
231, -20.85, -26.78, -18.44, -22.13, -25.01, -14.98, -16.67, -22.06, -18.98, -23.51, -13.90, -24.01, -25.44, -24.79, -21.06, -18.13, 0.000, 0.000, 0.000, 04:17:12.197
232, -20.85, -26.78, -18.44, -22.13, -25.01, -14.98, -16.67, -22.06, -18.95, -23.31, -13.95, -24.05, -25.44, -24.88, -21.28, -17.88, 0.000, 0.000, 0.000, 04:17:12.200
233, -20.81, -26.73, -18.55, -21.86, -25.01, -14.93, -16.81, -22.08, -18.95, -23.31, -13.95, -24.05, -25.44, -24.88, -21.28, -17.88, 0.004, 0.936, 0.322, 04:17:12.204
234, -20.81, -26.73, -18.55, -21.86, -25.01, -14.93, -16.81, -22.08, -18.95, -23.49, -13.90, -23.92, -25.53, -24.72, -21.26, -18.13, 0.000, 0.000, 0.000, 04:17:12.208
235, -20.90, -26.60, -18.48, -22.15, -24.94, -14.93, -16.96, -22.02, -18.95, -23.49, -13.90, -23.92, -25.53, -24.72, -21.26, -18.13, 0.000, 0.000, 0.000, 04:17:12.212
236, -20.90, -26.60, -18.48, -22.15, -24.94, -14.93, -16.96, -22.02, -19.04, -23.54, -13.72, -23.78, -25.57, -24.88, -21.21, -18.06, 0.000, 0.000, 0.000, 04:17:12.216
237, -20.81, -26.80, -18.53, -22.15, -24.92, -15.02, -16.85, -21.97, -19.04, -23.54, -13.72, -23.78, -25.57, -24.88, -21.21, -18.06, 0.000, 0.000, 0.000, 04:17:12.221
238, -20.81, -26.80, -18.53, -22.15, -24.92, -15.02, -16.85, -21.97, -18.86, -23.51, -13.81, -23.85, -25.28, -24.68, -21.21, -18.06, 0.000, 0.000, 0.000, 04:17:12.225
239, -20.68, -26.55, -18.66, -22.15, -25.03, -15.15, -16.83, -22.22, -18.86, -23.51, -13.81, -23.85, -25.28, -24.68, -21.21, -18.06, 0.000, 0.000, 0.000, 04:17:12.228
240, -20.68, -26.55, -18.66, -22.15, -25.03, -15.15, -16.83, -22.22, -18.71, -23.25, -13.79, -23.96, -25.39, -24.97, -21.19, -18.08, 0.000, 0.000, 0.000, 04:17:12.232
241, -20.94, -26.51, -18.51, -22.15, -25.12, -14.91, -16.61, -22.06, -18.71, -23.25, -13.79, -23.96, -25.39, -24.97, -21.19, -18.08, 0.000, 0.000, 0.000, 04:17:12.236
242, -20.94, -26.51, -18.51, -22.15, -25.12, -14.91, -16.61, -22.06, -18.91, -23.31, -13.84, -24.03, -25.26, -24.77, -21.28, -18.06, -0.002, 0.936, 0.342, 04:17:12.240
243, -20.81, -26.73, -18.44, -22.17, -24.86, -14.80, -16.72, -22.13, -18.91, -23.31, -13.84, -24.03, -25.26, -24.77, -21.28, -18.06, 0.000, 0.000, 0.000, 04:17:12.244
244, -20.81, -26.73, -18.44, -22.17, -24.86, -14.80, -16.72, -22.13, -18.93, -23.45, -13.93, -24.16, -25.53, -24.77, -21.41, -17.97, 0.000, 0.000, 0.000, 04:17:12.249
245, -20.74, -26.51, -18.57, -22.28, -24.92, -14.66, -16.63, -22.15, -18.93, -23.45, -13.93, -24.16, -25.53, -24.77, -21.41, -17.97, 0.000, 0.000, 0.000, 04:17:12.253
246, -20.74, -26.51, -18.57, -22.28, -24.92, -14.66, -16.63, -22.15, -18.89, -23.47, -13.90, -23.94, -25.37, -24.92, -21.30, -18.19, 0.000, 0.000, 0.000, 04:17:12.256
247, -20.90, -26.49, -18.55, -22.06, -25.03, -14.84, -16.79, -21.95, -18.89, -23.47, -13.90, -23.94, -25.37, -24.92, -21.30, -18.19, 0.000, 0.000, 0.000, 04:17:12.260
248, -20.90, -26.49, -18.55, -22.06, -25.03, -14.84, -16.79, -21.95, -18.73, -23.58, -13.95, -23.87, -25.46, -25.03, -21.26, -18.10, 0.000, 0.000, 0.000, 04:17:12.264
249, -20.83, -26.49, -18.48, -22.11, -25.08, -15.11, -16.67, -21.99, -18.73, -23.58, -13.95, -23.87, -25.46, -25.03, -21.26, -18.10, 0.000, 0.000, 0.000, 04:17:12.270
250, -20.83, -26.49, -18.48, -22.11, -25.08, -15.11, -16.67, -21.99, -18.95, -23.63, -13.97, -23.96, -25.24, -24.83, -21.21, -18.08, 0.000, 0.000, 0.000, 04:17:12.273
251, -20.72, -26.73, -18.55, -22.08, -25.21, -15.02, -16.63, -22.11, -18.95, -23.63, -13.97, -23.96, -25.24, -24.83, -21.21, -18.08, 0.000, 0.000, 0.000, 04:17:12.277
252, -20.72, -26.73, -18.55, -22.08, -25.21, -15.02, -16.63, -22.11, -18.64, -23.54, -14.06, -23.98, -25.35, -24.94, -21.26, -18.24, 0.002, 0.938, 0.330, 04:17:12.281
253, -20.74, -26.69, -18.60, -22.17, -25.19, -14.86, -16.74, -22.17, -18.64, -23.54, -14.06, -23.98, -25.35, -24.94, -21.26, -18.24, 0.000, 0.000, 0.000, 04:17:12.285
254, -20.74, -26.69, -18.60, -22.17, -25.19, -14.86, -16.74, -22.17, -18.84, -23.54, -13.90, -23.87, -25.59, -25.03, -21.12, -18.10, 0.000, 0.000, 0.000, 04:17:12.288
255, -20.94, -26.51, -18.73, -22.22, -25.06, -14.84, -16.61, -22.13, -18.84, -23.54, -13.90, -23.87, -25.59, -25.03, -21.12, -18.10, 0.000, 0.000, 0.000, 04:17:12.292
0, -20.94, -26.51, -18.73, -22.22, -25.06, -14.84, -16.61, -22.13, -19.04, -23.47, -13.97, -23.89, -25.24, -24.94, -21.32, -18.02, 0.000, 0.000, 0.000, 04:17:12.297
1, -20.79, -26.55, -18.64, -22.02, -24.94, -15.07, -16.72, -22.26, -19.04, -23.47, -13.97, -23.89, -25.24, -24.94, -21.32, -18.02, 0.000, 0.000, 0.000, 04:17:12.300
2, -20.79, -26.55, -18.64, -22.02, -24.94, -15.07, -16.72, -22.26, -18.84, -23.56, -14.15, -23.94, -25.46, -24.97, -21.10, -18.26, 0.000, 0.000, 0.000, 04:17:12.304
3, -20.70, -26.44, -18.44, -22.06, -24.97, -14.95, -16.85, -21.99, -18.84, -23.56, -14.15, -23.94, -25.46, -24.97, -21.10, -18.26, 0.000, 0.000, 0.000, 04:17:12.308
4, -20.70, -26.44, -18.44, -22.06, -24.97, -14.95, -16.85, -21.99, -18.93, -23.45, -13.95, -23.76, -25.62, -24.79, -21.21, -18.10, 0.000, 0.000, 0.000, 04:17:12.311
5, -20.74, -26.67, -18.53, -22.11, -24.81, -14.84, -16.74, -22.26, -18.93, -23.45, -13.95, -23.76, -25.62, -24.79, -21.21, -18.10, 0.000, 0.000, 0.000, 04:17:12.317
6, -20.74, -26.67, -18.53, -22.11, -24.81, -14.84, -16.74, -22.26, -18.93, -23.40, -13.90, -23.92, -25.53, -24.81, -21.19, -18.15, 0.004, 0.934, 0.310, 04:17:12.320
7, -20.92, -26.53, -18.60, -21.99, -25.01, -14.71, -16.56, -22.11, -18.93, -23.40, -13.90, -23.92, -25.53, -24.81, -21.19, -18.15, 0.000, 0.000, 0.000, 04:17:12.325
8, -20.92, -26.53, -18.60, -21.99, -25.01, -14.71, -16.56, -22.11, -18.93, -23.51, -13.88, -24.01, -25.37, -24.68, -21.21, -17.93, 0.000, 0.000, 0.000, 04:17:12.328
9, -20.79, -26.78, -18.80, -21.97, -25.10, -14.93, -16.76, -21.99, -18.93, -23.51, -13.88, -24.01, -25.37, -24.68, -21.21, -17.93, 0.000, 0.000, 0.000, 04:17:12.332
10, -20.79, -26.78, -18.80, -21.97, -25.10, -14.93, -16.76, -21.99, -18.84, -23.49, -13.86, -23.94, -25.46, -24.68, -21.30, -18.24, 0.000, 0.000, 0.000, 04:17:12.337
11, -20.74, -26.42, -18.57, -21.90, -24.99, -15.24, -16.67, -21.99, -18.84, -23.49, -13.86, -23.94, -25.46, -24.68, -21.30, -18.24, 0.000, 0.000, 0.000, 04:17:12.339
12, -20.74, -26.42, -18.57, -21.90, -24.99, -15.24, -16.67, -21.99, -18.91, -23.45, -13.95, -24.05, -25.50, -25.15, -21.12, -18.02, 0.000, 0.000, 0.000, 04:17:12.344
13, -20.79, -26.49, -18.48, -21.93, -25.08, -15.00, -16.79, -21.97, -18.91, -23.45, -13.95, -24.05, -25.50, -25.15, -21.12, -18.02, 0.000, 0.000, 0.000, 04:17:12.348
14, -20.79, -26.49, -18.48, -21.93, -25.08, -15.00, -16.79, -21.97, -18.93, -23.34, -13.88, -23.98, -25.48, -24.88, -21.23, -18.06, 0.000, 0.000, 0.000, 04:17:12.352
15, -20.50, -26.53, -18.69, -22.08, -25.06, -14.93, -16.52, -21.90, -18.93, -23.34, -13.88, -23.98, -25.48, -24.88, -21.23, -18.06, 0.000, 0.000, 0.000, 04:17:12.357
16, -20.50, -26.53, -18.69, -22.08, -25.06, -14.93, -16.52, -21.90, -18.80, -23.47, -13.95, -24.07, -25.57, -24.90, -21.23, -18.08, 0.002, 0.922, 0.300, 04:17:12.360
17, -20.56, -26.53, -18.62, -21.86, -25.12, -15.07, -16.63, -21.93, -18.80, -23.47, -13.95, -24.07, -25.57, -24.90, -21.23, -18.08, 0.000, 0.000, 0.000, 04:17:12.365
18, -20.56, -26.53, -18.62, -21.86, -25.12, -15.07, -16.63, -21.93, -18.89, -23.47, -13.99, -23.76, -25.26, -24.83, -21.32, -18.22, 0.000, 0.000, 0.000, 04:17:12.367
19, -20.76, -26.46, -18.46, -21.82, -25.08, -15.07, -16.58, -22.04, -18.89, -23.47, -13.99, -23.76, -25.26, -24.83, -21.32, -18.22, 0.000, 0.000, 0.000, 04:17:12.372
20, -20.76, -26.46, -18.46, -21.82, -25.08, -15.07, -16.58, -22.04, -19.00, -23.58, -13.88, -23.78, -25.48, -24.90, -21.10, -18.19, 0.000, 0.000, 0.000, 04:17:12.377
21, -20.88, -26.33, -18.71, -21.93, -25.10, -14.95, -16.79, -22.26, -19.00, -23.58, -13.88, -23.78, -25.48, -24.90, -21.10, -18.19, 0.000, 0.000, 0.000, 04:17:12.380
22, -20.88, -26.33, -18.71, -21.93, -25.10, -14.95, -16.79, -22.26, -18.89, -23.47, -13.86, -23.89, -25.44, -24.61, -20.97, -18.17, 0.000, 0.000, 0.000, 04:17:12.384
23, -20.74, -26.51, -18.35, -22.24, -24.90, -15.07, -16.56, -22.17, -18.89, -23.47, -13.86, -23.89, -25.44, -24.61, -20.97, -18.17, 0.000, 0.000, 0.000, 04:17:12.387
24, -20.74, -26.51, -18.35, -22.24, -24.90, -15.07, -16.56, -22.17, -18.84, -23.60, -13.90, -23.89, -25.26, -24.70, -21.26, -18.02, 0.000, 0.000, 0.000, 04:17:12.391
25, -20.65, -26.62, -18.73, -22.24, -25.15, -14.86, -16.58, -22.17, -18.84, -23.60, -13.90, -23.89, -25.26, -24.70, -21.26, -18.02, 0.000, 0.000, 0.000, 04:17:12.396
26, -20.65, -26.62, -18.73, -22.24, -25.15, -14.86, -16.58, -22.17, -18.89, -23.38, -13.95, -23.94, -25.41, -24.90, -21.41, -18.19, -0.002, 0.934, 0.324, 04:17:12.399
27, -20.70, -26.53, -18.64, -22.08, -24.99, -14.98, -16.79, -22.26, -18.89, -23.38, -13.95, -23.94, -25.41, -24.90, -21.41, -18.19, 0.000, 0.000, 0.000, 04:17:12.404
28, -20.70, -26.53, -18.64, -22.08, -24.99, -14.98, -16.79, -22.26, -18.60, -23.54, -13.81, -24.12, -25.39, -24.90, -21.23, -17.97, 0.000, 0.000, 0.000, 04:17:12.408
29, -20.81, -26.51, -18.44, -22.11, -25.01, -14.91, -16.72, -22.08, -18.60, -23.54, -13.81, -24.12, -25.39, -24.90, -21.23, -17.97, 0.000, 0.000, 0.000, 04:17:12.412
30, -20.81, -26.51, -18.44, -22.11, -25.01, -14.91, -16.72, -22.08, -18.78, -23.47, -13.93, -24.10, -25.30, -24.59, -21.17, -17.75, 0.000, 0.000, 0.000, 04:17:12.417
31, -20.65, -26.60, -18.51, -22.04, -24.79, -14.93, -16.70, -22.22, -18.78, -23.47, -13.93, -24.10, -25.30, -24.59, -21.17, -17.75, 0.000, 0.000, 0.000, 04:17:12.420
32, -20.65, -26.60, -18.51, -22.04, -24.79, -14.93, -16.70, -22.22, -18.80, -23.36, -13.99, -24.05, -25.15, -24.92, -21.35, -17.97, 0.000, 0.000, 0.000, 04:17:12.424
33, -20.76, -26.60, -18.53, -22.04, -25.19, -14.93, -16.61, -21.99, -18.80, -23.36, -13.99, -24.05, -25.15, -24.92, -21.35, -17.97, 0.000, 0.000, 0.000, 04:17:12.427
34, -20.76, -26.60, -18.53, -22.04, -25.19, -14.93, -16.61, -21.99, -18.89, -23.49, -13.84, -24.01, -25.57, -24.90, -21.19, -18.02, 0.000, 0.000, 0.000, 04:17:12.432
35, -20.83, -26.67, -18.57, -21.90, -25.28, -15.09, -16.70, -22.13, -18.89, -23.49, -13.84, -24.01, -25.57, -24.90, -21.19, -18.02, 0.000, 0.000, 0.000, 04:17:12.437
36, -20.83, -26.67, -18.57, -21.90, -25.28, -15.09, -16.70, -22.13, -18.93, -23.69, -14.01, -23.94, -25.55, -24.83, -21.37, -18.02, 0.004, 0.934, 0.312, 04:17:12.440
37, -20.68, -26.67, -18.66, -22.06, -24.99, -14.93, -16.67, -22.22, -18.93, -23.69, -14.01, -23.94, -25.55, -24.83, -21.37, -18.02, 0.000, 0.000, 0.000, 04:17:12.444
38, -20.68, -26.67, -18.66, -22.06, -24.99, -14.93, -16.67, -22.22, -18.91, -23.78, -13.90, -24.05, -25.35, -24.72, -21.14, -18.15, 0.000, 0.000, 0.000, 04:17:12.447
39, -20.70, -26.51, -18.62, -22.04, -24.81, -14.77, -16.83, -22.04, -18.91, -23.78, -13.90, -24.05, -25.35, -24.72, -21.14, -18.15, 0.000, 0.000, 0.000, 04:17:12.451
40, -20.70, -26.51, -18.62, -22.04, -24.81, -14.77, -16.83, -22.04, -18.78, -23.29, -14.01, -23.98, -25.37, -25.08, -21.03, -18.17, 0.000, 0.000, 0.000, 04:17:12.456
41, -20.74, -26.51, -18.57, -22.11, -25.03, -14.93, -16.76, -22.08, -18.78, -23.29, -14.01, -23.98, -25.37, -25.08, -21.03, -18.17, 0.000, 0.000, 0.000, 04:17:12.459
42, -20.74, -26.51, -18.57, -22.11, -25.03, -14.93, -16.76, -22.08, -18.71, -23.38, -14.08, -24.12, -25.39, -24.81, -21.39, -18.13, 0.000, 0.000, 0.000, 04:17:12.466
43, -20.52, -26.58, -18.53, -22.02, -25.08, -14.86, -16.83, -22.11, -18.71, -23.38, -14.08, -24.12, -25.39, -24.81, -21.39, -18.13, 0.000, 0.000, 0.000, 04:17:12.468
44, -20.52, -26.58, -18.53, -22.02, -25.08, -14.86, -16.83, -22.11, -18.78, -23.56, -13.99, -24.03, -25.41, -24.88, -21.19, -18.28, 0.000, 0.000, 0.000, 04:17:12.471
45, -20.70, -26.33, -18.53, -22.06, -24.88, -14.95, -17.03, -21.97, -18.78, -23.56, -13.99, -24.03, -25.41, -24.88, -21.19, -18.28, 0.002, 0.936, 0.304, 04:17:12.476
46, -20.70, -26.33, -18.53, -22.06, -24.88, -14.95, -17.03, -21.97, -18.93, -23.45, -14.04, -24.01, -25.30, -24.97, -21.14, -18.06, 0.000, 0.000, 0.000, 04:17:12.480
47, -20.76, -26.38, -18.55, -21.97, -24.99, -15.00, -16.90, -22.20, -18.93, -23.45, -14.04, -24.01, -25.30, -24.97, -21.14, -18.06, 0.000, 0.000, 0.000, 04:17:12.483
48, -20.76, -26.38, -18.55, -21.97, -24.99, -15.00, -16.90, -22.20, -19.07, -23.34, -14.06, -24.07, -25.57, -24.77, -21.17, -18.02, 0.000, 0.000, 0.000, 04:17:12.488
49, -20.74, -26.49, -18.46, -22.13, -24.99, -15.04, -16.65, -22.22, -19.07, -23.34, -14.06, -24.07, -25.57, -24.77, -21.17, -18.02, 0.000, 0.000, 0.000, 04:17:12.492
50, -20.74, -26.49, -18.46, -22.13, -24.99, -15.04, -16.65, -22.22, -18.86, -23.36, -13.97, -23.94, -25.57, -24.79, -21.06, -18.19, 0.000, 0.000, 0.000, 04:17:12.496
51, -20.68, -26.69, -18.42, -22.17, -25.03, -15.00, -16.63, -22.08, -18.86, -23.36, -13.97, -23.94, -25.57, -24.79, -21.06, -18.19, 0.000, 0.000, 0.000, 04:17:12.500
52, -20.68, -26.69, -18.42, -22.17, -25.03, -15.00, -16.63, -22.08, -18.93, -23.29, -14.01, -23.85, -25.30, -24.68, -21.28, -18.02, 0.000, 0.000, 0.000, 04:17:12.503
53, -20.68, -26.73, -18.51, -22.24, -24.99, -14.95, -16.65, -21.90, -18.93, -23.29, -14.01, -23.85, -25.30, -24.68, -21.28, -18.02, 0.000, 0.000, 0.000, 04:17:12.508
54, -20.68, -26.73, -18.51, -22.24, -24.99, -14.95, -16.65, -21.90, -19.04, -23.58, -13.86, -23.89, -25.55, -24.50, -21.28, -18.08, 0.000, 0.000, 0.000, 04:17:12.511
55, -20.85, -26.46, -18.69, -22.08, -24.88, -14.89, -16.85, -21.73, -19.04, -23.58, -13.86, -23.89, -25.55, -24.50, -21.28, -18.08, 0.000, 0.942, 0.320, 04:17:12.515
56, -20.85, -26.46, -18.69, -22.08, -24.88, -14.89, -16.85, -21.73, -18.98, -23.38, -13.55, -24.01, -25.37, -24.83, -21.32, -17.97, 0.000, 0.000, 0.000, 04:17:12.521
57, -20.83, -26.26, -18.48, -21.99, -24.99, -14.84, -16.67, -22.26, -18.98, -23.38, -13.55, -24.01, -25.37, -24.83, -21.32, -17.97, 0.000, 0.000, 0.000, 04:17:12.523
58, -20.83, -26.26, -18.48, -21.99, -24.99, -14.84, -16.67, -22.26, -18.95, -23.49, -13.79, -23.94, -25.44, -24.94, -21.32, -17.84, 0.000, 0.000, 0.000, 04:17:12.527
59, -20.88, -26.80, -18.55, -21.99, -25.21, -15.00, -16.72, -22.20, -18.95, -23.49, -13.79, -23.94, -25.44, -24.94, -21.32, -17.84, 0.000, 0.000, 0.000, 04:17:12.532
60, -20.88, -26.80, -18.55, -21.99, -25.21, -15.00, -16.72, -22.20, -18.95, -23.80, -14.19, -23.96, -25.32, -24.70, -21.19, -18.06, 0.000, 0.000, 0.000, 04:17:12.535
61, -20.88, -26.64, -18.44, -21.84, -25.15, -14.95, -16.83, -21.99, -18.95, -23.80, -14.19, -23.96, -25.32, -24.70, -21.19, -18.06, 0.000, 0.000, 0.000, 04:17:12.540
62, -20.88, -26.64, -18.44, -21.84, -25.15, -14.95, -16.83, -21.99, -18.98, -23.49, -14.10, -24.01, -25.28, -24.79, -21.21, -18.02, 0.000, 0.000, 0.000, 04:17:12.544
63, -20.76, -26.71, -18.53, -21.90, -25.06, -14.91, -16.76, -22.08, -18.98, -23.49, -14.10, -24.01, -25.28, -24.79, -21.21, -18.02, 0.000, 0.000, 0.000, 04:17:12.548
64, -20.76, -26.71, -18.53, -21.90, -25.06, -14.91, -16.76, -22.08, -18.75, -23.58, -13.84, -24.03, -25.12, -24.77, -21.41, -17.99, 0.000, 0.000, 0.000, 04:17:12.551
65, -20.72, -26.58, -18.64, -21.99, -24.90, -14.95, -16.79, -22.15, -18.75, -23.58, -13.84, -24.03, -25.12, -24.77, -21.41, -17.99, -0.002, 0.952, 0.322, 04:17:12.556
66, -20.72, -26.58, -18.64, -21.99, -24.90, -14.95, -16.79, -22.15, -18.82, -23.42, -13.79, -23.87, -25.15, -24.77, -21.17, -17.95, 0.000, 0.000, 0.000, 04:17:12.560
67, -20.90, -26.44, -18.53, -21.97, -25.03, -14.95, -16.85, -22.28, -18.82, -23.42, -13.79, -23.87, -25.15, -24.77, -21.17, -17.95, 0.000, 0.000, 0.000, 04:17:12.563
68, -20.90, -26.44, -18.53, -21.97, -25.03, -14.95, -16.85, -22.28, -19.02, -23.38, -13.95, -24.03, -25.28, -24.72, -21.10, -18.31, 0.000, 0.000, 0.000, 04:17:12.568
69, -20.88, -26.51, -18.64, -22.08, -25.39, -15.04, -16.88, -22.42, -19.02, -23.38, -13.95, -24.03, -25.28, -24.72, -21.10, -18.31, 0.000, 0.000, 0.000, 04:17:12.572
70, -20.88, -26.51, -18.64, -22.08, -25.39, -15.04, -16.88, -22.42, -18.89, -23.42, -13.86, -24.18, -25.39, -24.72, -21.23, -17.97, 0.000, 0.000, 0.000, 04:17:12.576
71, -20.90, -26.51, -18.69, -22.20, -25.08, -14.80, -16.88, -22.04, -18.89, -23.42, -13.86, -24.18, -25.39, -24.72, -21.23, -17.97, 0.000, 0.000, 0.000, 04:17:12.581
72, -20.90, -26.51, -18.69, -22.20, -25.08, -14.80, -16.88, -22.04, -18.95, -23.38, -13.90, -23.89, -25.46, -24.90, -20.99, -17.99, 0.000, 0.000, 0.000, 04:17:12.583
73, -20.72, -26.55, -18.53, -22.20, -25.01, -14.89, -16.58, -22.15, -18.95, -23.38, -13.90, -23.89, -25.46, -24.90, -20.99, -17.99, 0.000, 0.000, 0.000, 04:17:12.588
74, -20.72, -26.55, -18.53, -22.20, -25.01, -14.89, -16.58, -22.15, -18.91, -23.27, -13.72, -23.98, -25.39, -24.99, -21.23, -17.93, 0.000, 0.000, 0.000, 04:17:12.592
75, -20.68, -26.62, -18.82, -22.24, -25.12, -14.86, -16.70, -22.15, -18.91, -23.27, -13.72, -23.98, -25.39, -24.99, -21.23, -17.93, 0.000, 0.932, 0.296, 04:17:12.597
76, -20.68, -26.62, -18.82, -22.24, -25.12, -14.86, -16.70, -22.15, -18.86, -23.42, -13.84, -24.14, -25.37, -24.86, -21.12, -17.93, 0.000, 0.000, 0.000, 04:17:12.602
77, -20.85, -26.64, -18.55, -22.13, -25.24, -15.11, -16.83, -22.44, -18.86, -23.42, -13.84, -24.14, -25.37, -24.86, -21.12, -17.93, 0.000, 0.000, 0.000, 04:17:12.605
78, -20.85, -26.64, -18.55, -22.13, -25.24, -15.11, -16.83, -22.44, -19.16, -23.47, -13.97, -24.01, -25.24, -24.86, -21.17, -17.90, 0.000, 0.000, 0.000, 04:17:12.607
79, -20.70, -26.71, -18.51, -22.20, -25.03, -15.02, -16.58, -21.93, -19.16, -23.47, -13.97, -24.01, -25.24, -24.86, -21.17, -17.90, 0.000, 0.000, 0.000, 04:17:12.612
80, -20.70, -26.71, -18.51, -22.20, -25.03, -15.02, -16.58, -21.93, -19.07, -23.60, -13.93, -24.03, -25.35, -24.88, -21.23, -18.08, 0.000, 0.000, 0.000, 04:17:12.615
81, -20.72, -26.62, -18.40, -22.15, -25.21, -14.98, -16.74, -22.28, -19.07, -23.60, -13.93, -24.03, -25.35, -24.88, -21.23, -18.08, 0.000, 0.000, 0.000, 04:17:12.620
82, -20.72, -26.62, -18.40, -22.15, -25.21, -14.98, -16.74, -22.28, -19.09, -23.25, -13.70, -23.85, -25.53, -24.83, -21.06, -18.17, 0.000, 0.000, 0.000, 04:17:12.623
83, -20.74, -26.60, -18.64, -21.99, -24.99, -14.84, -16.90, -22.13, -19.09, -23.25, -13.70, -23.85, -25.53, -24.83, -21.06, -18.17, 0.000, 0.000, 0.000, 04:17:12.628
84, -20.74, -26.60, -18.64, -21.99, -24.99, -14.84, -16.90, -22.13, -18.93, -23.38, -13.97, -23.94, -25.21, -24.92, -21.12, -18.28, 0.000, 0.000, 0.000, 04:17:12.632
85, -20.90, -26.78, -18.53, -21.79, -25.12, -14.89, -16.83, -22.17, -18.93, -23.38, -13.97, -23.94, -25.21, -24.92, -21.12, -18.28, 0.000, 0.930, 0.302, 04:17:12.635
86, -20.90, -26.78, -18.53, -21.79, -25.12, -14.89, -16.83, -22.17, -18.84, -23.34, -14.01, -24.01, -25.41, -24.90, -21.17, -18.17, 0.000, 0.000, 0.000, 04:17:12.640
87, -20.92, -26.62, -18.55, -22.26, -24.92, -15.02, -16.61, -22.04, -18.84, -23.34, -14.01, -24.01, -25.41, -24.90, -21.17, -18.17, 0.000, 0.000, 0.000, 04:17:12.643
88, -20.92, -26.62, -18.55, -22.26, -24.92, -15.02, -16.61, -22.04, -18.93, -23.27, -14.04, -24.23, -25.39, -24.88, -21.35, -18.06, 0.000, 0.000, 0.000, 04:17:12.648
89, -20.83, -26.60, -18.55, -22.11, -24.94, -14.82, -16.54, -22.17, -18.93, -23.27, -14.04, -24.23, -25.39, -24.88, -21.35, -18.06, 0.000, 0.000, 0.000, 04:17:12.652
90, -20.83, -26.60, -18.55, -22.11, -24.94, -14.82, -16.54, -22.17, -18.98, -23.29, -13.93, -23.85, -25.48, -24.81, -21.35, -17.97, 0.000, 0.000, 0.000, 04:17:12.655
91, -20.74, -26.49, -18.60, -22.02, -25.06, -15.07, -16.83, -22.24, -18.98, -23.29, -13.93, -23.85, -25.48, -24.81, -21.35, -17.97, 0.000, 0.000, 0.000, 04:17:12.659
92, -20.74, -26.49, -18.60, -22.02, -25.06, -15.07, -16.83, -22.24, -19.02, -23.47, -14.01, -23.92, -25.26, -24.90, -21.08, -18.13, 0.000, 0.000, 0.000, 04:17:12.664
93, -20.76, -26.53, -18.53, -21.95, -24.97, -15.02, -16.79, -22.02, -19.02, -23.47, -14.01, -23.92, -25.26, -24.90, -21.08, -18.13, 0.000, 0.000, 0.000, 04:17:12.669
94, -20.76, -26.53, -18.53, -21.95, -24.97, -15.02, -16.79, -22.02, -18.80, -23.31, -14.22, -24.14, -25.46, -24.79, -21.01, -18.17, 0.000, 0.000, 0.000, 04:17:12.673
95, -20.79, -26.49, -18.60, -21.97, -25.12, -15.02, -16.85, -21.93, -18.80, -23.31, -14.22, -24.14, -25.46, -24.79, -21.01, -18.17, -0.004, 0.938, 0.320, 04:17:12.677
96, -20.79, -26.49, -18.60, -21.97, -25.12, -15.02, -16.85, -21.93, -18.69, -23.54, -13.79, -24.16, -25.50, -24.81, -21.12, -18.06, 0.000, 0.000, 0.000, 04:17:12.681
97, -20.72, -26.62, -18.60, -21.95, -25.26, -15.00, -16.74, -21.93, -18.69, -23.54, -13.79, -24.16, -25.50, -24.81, -21.12, -18.06, 0.000, 0.000, 0.000, 04:17:12.685
98, -20.72, -26.62, -18.60, -21.95, -25.26, -15.00, -16.74, -21.93, -18.84, -23.65, -13.84, -23.89, -25.55, -24.79, -21.08, -18.04, 0.000, 0.000, 0.000, 04:17:12.688
99, -20.61, -26.53, -18.46, -21.93, -25.03, -14.91, -16.56, -22.11, -18.84, -23.65, -13.84, -23.89, -25.55, -24.79, -21.08, -18.04, 0.000, 0.000, 0.000, 04:17:12.691
100, -20.61, -26.53, -18.46, -21.93, -25.03, -14.91, -16.56, -22.11, -19.02, -23.54, -13.79, -24.05, -25.24, -24.79, -21.21, -17.95, 0.000, 0.000, 0.000, 04:17:12.695
101, -20.61, -26.35, -18.44, -22.17, -25.17, -15.04, -16.81, -22.08, -19.02, -23.54, -13.79, -24.05, -25.24, -24.79, -21.21, -17.95, 0.000, 0.000, 0.000, 04:17:12.699
102, -20.61, -26.35, -18.44, -22.17, -25.17, -15.04, -16.81, -22.08, -18.73, -23.29, -13.84, -23.92, -25.26, -25.03, -21.41, -18.15, 0.000, 0.000, 0.000, 04:17:12.704
103, -20.83, -26.64, -18.31, -22.17, -25.08, -15.07, -16.83, -21.97, -18.73, -23.29, -13.84, -23.92, -25.26, -25.03, -21.41, -18.15, 0.000, 0.000, 0.000, 04:17:12.708
104, -20.83, -26.64, -18.31, -22.17, -25.08, -15.07, -16.83, -21.97, -19.11, -23.58, -13.99, -24.21, -25.21, -24.92, -21.30, -18.10, 0.002, 0.938, 0.282, 04:17:12.710
105, -20.74, -26.51, -18.48, -22.17, -24.97, -14.89, -16.72, -21.90, -19.11, -23.58, -13.99, -24.21, -25.21, -24.92, -21.30, -18.10, 0.000, 0.000, 0.000, 04:17:12.715
106, -20.74, -26.51, -18.48, -22.17, -24.97, -14.89, -16.72, -21.90, -18.84, -23.54, -13.97, -24.10, -25.26, -24.83, -21.10, -18.06, 0.000, 0.000, 0.000, 04:17:12.719
107, -20.63, -26.49, -18.26, -22.13, -25.19, -14.82, -16.76, -22.08, -18.84, -23.54, -13.97, -24.10, -25.26, -24.83, -21.10, -18.06, 0.000, 0.000, 0.000, 04:17:12.722
108, -20.63, -26.49, -18.26, -22.13, -25.19, -14.82, -16.76, -22.08, -18.71, -23.65, -13.95, -23.94, -25.53, -24.88, -21.35, -18.37, 0.000, 0.000, 0.000, 04:17:12.728
109, -20.72, -26.62, -18.60, -22.15, -25.15, -14.82, -16.65, -22.35, -18.71, -23.65, -13.95, -23.94, -25.53, -24.88, -21.35, -18.37, 0.000, 0.000, 0.000, 04:17:12.732
110, -20.72, -26.62, -18.60, -22.15, -25.15, -14.82, -16.65, -22.35, -18.95, -23.42, -13.84, -23.98, -25.30, -25.08, -21.26, -18.10, 0.000, 0.000, 0.000, 04:17:12.736
111, -20.72, -26.49, -18.46, -22.20, -24.94, -15.00, -16.76, -22.15, -18.95, -23.42, -13.84, -23.98, -25.30, -25.08, -21.26, -18.10, 0.000, 0.000, 0.000, 04:17:12.743
112, -20.72, -26.49, -18.46, -22.20, -24.94, -15.00, -16.76, -22.15, -19.11, -23.72, -14.06, -24.12, -25.24, -24.99, -21.30, -17.97, 0.000, 0.000, 0.000, 04:17:12.745
113, -20.74, -26.51, -18.66, -22.08, -24.74, -14.93, -16.88, -21.99, -19.11, -23.72, -14.06, -24.12, -25.24, -24.99, -21.30, -17.97, 0.000, 0.000, 0.000, 04:17:12.748
114, -20.74, -26.51, -18.66, -22.08, -24.74, -14.93, -16.88, -21.99, -18.75, -23.69, -13.97, -24.03, -25.32, -24.72, -21.28, -17.97, 0.008, 0.938, 0.300, 04:17:12.751
115, -20.74, -26.44, -18.64, -21.95, -25.01, -14.86, -16.85, -22.11, -18.75, -23.69, -13.97, -24.03, -25.32, -24.72, -21.28, -17.97, 0.000, 0.000, 0.000, 04:17:12.755
116, -20.74, -26.44, -18.64, -21.95, -25.01, -14.86, -16.85, -22.11, -18.75, -23.38, -13.79, -24.12, -25.17, -25.10, -21.21, -17.93, 0.000, 0.000, 0.000, 04:17:12.760
117, -20.56, -26.64, -18.53, -21.95, -25.06, -14.75, -16.99, -21.99, -18.75, -23.38, -13.79, -24.12, -25.17, -25.10, -21.21, -17.93, 0.000, 0.000, 0.000, 04:17:12.762
118, -20.56, -26.64, -18.53, -21.95, -25.06, -14.75, -16.99, -21.99, -18.84, -23.29, -14.13, -24.07, -25.26, -24.90, -21.19, -17.99, 0.000, 0.000, 0.000, 04:17:12.767
119, -20.70, -26.55, -18.66, -22.13, -25.12, -14.91, -16.90, -22.04, -18.84, -23.29, -14.13, -24.07, -25.26, -24.90, -21.19, -17.99, 0.000, 0.000, 0.000, 04:17:12.771
120, -20.70, -26.55, -18.66, -22.13, -25.12, -14.91, -16.90, -22.04, -18.89, -23.27, -13.90, -23.96, -25.46, -24.97, -21.32, -17.97, 0.000, 0.000, 0.000, 04:17:12.775
121, -20.79, -26.55, -18.53, -22.02, -24.94, -15.09, -16.67, -21.86, -18.89, -23.27, -13.90, -23.96, -25.46, -24.97, -21.32, -17.97, 0.000, 0.000, 0.000, 04:17:12.779
122, -20.79, -26.55, -18.53, -22.02, -24.94, -15.09, -16.67, -21.86, -18.91, -23.65, -13.86, -24.05, -25.26, -24.92, -21.46, -18.22, 0.000, 0.000, 0.000, 04:17:12.783
123, -20.70, -26.51, -18.66, -21.99, -25.01, -14.95, -16.63, -22.15, -18.91, -23.65, -13.86, -24.05, -25.26, -24.92, -21.46, -18.22, 0.000, 0.000, 0.000, 04:17:12.787
124, -20.70, -26.51, -18.66, -21.99, -25.01, -14.95, -16.63, -22.15, -18.75, -23.60, -13.79, -23.96, -25.35, -24.90, -21.14, -18.02, 0.004, 0.942, 0.314, 04:17:12.791
125, -20.76, -26.55, -18.48, -22.22, -25.03, -14.93, -16.70, -22.11, -18.75, -23.60, -13.79, -23.96, -25.35, -24.90, -21.14, -18.02, 0.000, 0.000, 0.000, 04:17:12.795
126, -20.76, -26.55, -18.48, -22.22, -25.03, -14.93, -16.70, -22.11, -18.95, -23.54, -14.06, -23.87, -25.46, -24.83, -21.21, -17.99, 0.000, 0.000, 0.000, 04:17:12.798
127, -20.76, -26.55, -18.75, -22.24, -25.06, -14.77, -16.96, -22.02, -18.95, -23.54, -14.06, -23.87, -25.46, -24.83, -21.21, -17.99, 0.000, 0.000, 0.000, 04:17:12.803
128, -20.76, -26.55, -18.75, -22.24, -25.06, -14.77, -16.96, -22.02, -19.02, -23.51, -13.88, -23.83, -25.48, -24.86, -21.01, -18.06, 0.000, 0.000, 0.000, 04:17:12.807
129, -20.99, -26.46, -18.66, -22.11, -24.97, -14.93, -16.63, -21.90, -19.02, -23.51, -13.88, -23.83, -25.48, -24.86, -21.01, -18.06, 0.000, 0.000, 0.000, 04:17:12.811
130, -20.99, -26.46, -18.66, -22.11, -24.97, -14.93, -16.63, -21.90, -18.80, -23.40, -13.72, -24.05, -25.41, -24.68, -21.35, -17.79, 0.000, 0.000, 0.000, 04:17:12.816
131, -20.92, -26.67, -18.60, -22.15, -24.99, -14.98, -16.70, -22.20, -18.80, -23.40, -13.72, -24.05, -25.41, -24.68, -21.35, -17.79, 0.000, 0.000, 0.000, 04:17:12.818
132, -20.92, -26.67, -18.60, -22.15, -24.99, -14.98, -16.70, -22.20, -18.89, -23.40, -13.77, -23.96, -25.21, -24.74, -21.37, -17.99, 0.000, 0.000, 0.000, 04:17:12.823
133, -20.83, -26.51, -18.33, -22.04, -24.86, -15.13, -16.79, -22.08, -18.89, -23.40, -13.77, -23.96, -25.21, -24.74, -21.37, -17.99, 0.000, 0.000, 0.000, 04:17:12.827
134, -20.83, -26.51, -18.33, -22.04, -24.86, -15.13, -16.79, -22.08, -18.93, -23.34, -13.90, -23.85, -25.21, -24.99, -21.23, -17.97, -0.004, 0.944, 0.324, 04:17:12.831
135, -20.81, -26.49, -18.86, -22.24, -24.88, -15.15, -16.79, -21.95, -18.93, -23.34, -13.90, -23.85, -25.21, -24.99, -21.23, -17.97, 0.000, 0.000, 0.000, 04:17:12.835
136, -20.81, -26.49, -18.86, -22.24, -24.88, -15.15, -16.79, -21.95, -18.69, -23.60, -13.86, -24.07, -25.15, -24.81, -21.14, -18.04, 0.000, 0.000, 0.000, 04:17:12.841
137, -20.88, -26.80, -18.55, -22.06, -25.01, -14.84, -16.67, -22.15, -18.69, -23.60, -13.86, -24.07, -25.15, -24.81, -21.14, -18.04, 0.000, 0.000, 0.000, 04:17:12.844
138, -20.88, -26.80, -18.55, -22.06, -25.01, -14.84, -16.67, -22.15, -18.75, -23.38, -13.79, -24.25, -25.55, -24.74, -21.35, -18.17, 0.000, 0.000, 0.000, 04:17:12.848
139, -20.79, -26.73, -18.69, -22.02, -25.08, -14.89, -16.63, -22.15, -18.75, -23.38, -13.79, -24.25, -25.55, -24.74, -21.35, -18.17, 0.000, 0.000, 0.000, 04:17:12.851
140, -20.79, -26.73, -18.69, -22.02, -25.08, -14.89, -16.63, -22.15, -18.93, -23.42, -13.86, -23.98, -25.50, -24.92, -21.39, -17.97, 0.000, 0.000, 0.000, 04:17:12.855
141, -20.83, -26.62, -18.66, -22.20, -24.97, -14.93, -16.72, -21.79, -18.93, -23.42, -13.86, -23.98, -25.50, -24.92, -21.39, -17.97, 0.000, 0.000, 0.000, 04:17:12.859
142, -20.83, -26.62, -18.66, -22.20, -24.97, -14.93, -16.72, -21.79, -19.07, -23.31, -13.97, -23.89, -25.28, -24.92, -21.41, -17.99, 0.000, 0.000, 0.000, 04:17:12.863
143, -20.63, -26.55, -18.57, -22.20, -24.99, -15.04, -16.56, -22.02, -19.07, -23.31, -13.97, -23.89, -25.28, -24.92, -21.41, -17.99, 0.000, 0.000, 0.000, 04:17:12.867
144, -20.63, -26.55, -18.57, -22.20, -24.99, -15.04, -16.56, -22.02, -18.75, -23.58, -13.86, -23.98, -25.39, -24.74, -21.28, -18.24, 0.002, 0.938, 0.322, 04:17:12.872
145, -20.74, -26.55, -18.44, -21.93, -25.08, -15.13, -16.76, -21.99, -18.75, -23.58, -13.86, -23.98, -25.39, -24.74, -21.28, -18.24, 0.000, 0.000, 0.000, 04:17:12.875
146, -20.74, -26.55, -18.44, -21.93, -25.08, -15.13, -16.76, -21.99, -18.89, -23.76, -13.99, -23.96, -25.50, -24.86, -21.14, -18.04, 0.000, 0.000, 0.000, 04:17:12.878
147, -20.76, -26.64, -18.69, -21.88, -25.08, -15.02, -16.61, -22.02, -18.89, -23.76, -13.99, -23.96, -25.50, -24.86, -21.14, -18.04, 0.000, 0.000, 0.000, 04:17:12.883
148, -20.76, -26.64, -18.69, -21.88, -25.08, -15.02, -16.61, -22.02, -18.86, -23.56, -13.93, -24.03, -25.48, -24.90, -20.97, -18.02, 0.000, 0.000, 0.000, 04:17:12.887
149, -20.70, -26.58, -18.75, -22.06, -25.17, -14.95, -16.85, -21.86, -18.86, -23.56, -13.93, -24.03, -25.48, -24.90, -20.97, -18.02, 0.000, 0.000, 0.000, 04:17:12.891
150, -20.70, -26.58, -18.75, -22.06, -25.17, -14.95, -16.85, -21.86, -19.02, -23.49, -13.86, -24.10, -25.35, -24.61, -21.14, -18.19, 0.000, 0.000, 0.000, 04:17:12.895
151, -20.85, -26.49, -18.75, -22.22, -25.17, -14.98, -16.72, -22.04, -19.02, -23.49, -13.86, -24.10, -25.35, -24.61, -21.14, -18.19, 0.000, 0.000, 0.000, 04:17:12.899
152, -20.85, -26.49, -18.75, -22.22, -25.17, -14.98, -16.72, -22.04, -18.84, -23.34, -14.04, -23.92, -25.35, -24.68, -21.32, -18.17, 0.000, 0.000, 0.000, 04:17:12.902
153, -20.83, -26.49, -18.55, -22.13, -25.10, -14.93, -16.81, -22.20, -18.84, -23.34, -14.04, -23.92, -25.35, -24.68, -21.32, -18.17, 0.000, 0.000, 0.000, 04:17:12.907
154, -20.83, -26.49, -18.55, -22.13, -25.10, -14.93, -16.81, -22.20, -18.98, -23.29, -13.81, -24.05, -25.39, -24.77, -21.12, -18.02, 0.002, 0.946, 0.328, 04:17:12.912
155, -20.79, -26.53, -18.64, -21.84, -24.99, -14.89, -16.56, -22.13, -18.98, -23.29, -13.81, -24.05, -25.39, -24.77, -21.12, -18.02, 0.000, 0.000, 0.000, 04:17:12.915
156, -20.79, -26.53, -18.64, -21.84, -24.99, -14.89, -16.56, -22.13, -18.98, -23.56, -14.06, -24.16, -25.19, -24.77, -21.06, -18.08, 0.000, 0.000, 0.000, 04:17:12.919
157, -20.83, -26.42, -18.46, -22.04, -25.10, -15.00, -16.58, -22.08, -18.98, -23.56, -14.06, -24.16, -25.19, -24.77, -21.06, -18.08, 0.000, 0.000, 0.000, 04:17:12.923
158, -20.83, -26.42, -18.46, -22.04, -25.10, -15.00, -16.58, -22.08, -19.00, -23.29, -13.86, -23.85, -25.32, -24.59, -21.23, -18.02, 0.000, 0.000, 0.000, 04:17:12.927
159, -20.68, -26.53, -18.66, -22.28, -25.10, -15.18, -16.70, -22.08, -19.00, -23.29, -13.86, -23.85, -25.32, -24.59, -21.23, -18.02, 0.000, 0.000, 0.000, 04:17:12.930
160, -20.68, -26.53, -18.66, -22.28, -25.10, -15.18, -16.70, -22.08, -18.71, -23.49, -14.17, -23.98, -25.48, -24.97, -21.14, -18.15, 0.000, 0.000, 0.000, 04:17:12.934
161, -20.88, -26.62, -18.64, -22.20, -25.10, -15.11, -16.56, -22.22, -18.71, -23.49, -14.17, -23.98, -25.48, -24.97, -21.14, -18.15, 0.000, 0.000, 0.000, 04:17:12.939
162, -20.88, -26.62, -18.64, -22.20, -25.10, -15.11, -16.56, -22.22, -18.75, -23.40, -13.84, -24.03, -25.41, -24.97, -21.01, -18.24, 0.000, 0.000, 0.000, 04:17:12.943
163, -20.88, -26.51, -18.75, -22.15, -24.88, -14.86, -16.90, -22.28, -18.75, -23.40, -13.84, -24.03, -25.41, -24.97, -21.01, -18.24, 0.000, 0.000, 0.000, 04:17:12.947
164, -20.88, -26.51, -18.75, -22.15, -24.88, -14.86, -16.90, -22.28, -18.91, -23.31, -13.93, -23.98, -25.37, -24.79, -20.97, -17.99, 0.006, 0.950, 0.342, 04:17:12.951
165, -20.63, -26.44, -18.62, -21.97, -25.17, -14.98, -16.79, -21.99, -18.91, -23.31, -13.93, -23.98, -25.37, -24.79, -20.97, -17.99, 0.000, 0.000, 0.000, 04:17:12.954
166, -20.63, -26.44, -18.62, -21.97, -25.17, -14.98, -16.79, -21.99, -18.84, -23.60, -13.61, -23.92, -25.41, -24.79, -21.37, -18.08, 0.000, 0.000, 0.000, 04:17:12.958
167, -20.59, -26.58, -18.69, -21.90, -24.99, -15.18, -16.99, -22.17, -18.84, -23.60, -13.61, -23.92, -25.41, -24.79, -21.37, -18.08, 0.000, 0.000, 0.000, 04:17:12.963
168, -20.59, -26.58, -18.69, -21.90, -24.99, -15.18, -16.99, -22.17, -18.89, -23.45, -13.97, -24.03, -25.39, -24.70, -21.23, -18.02, 0.000, 0.000, 0.000, 04:17:12.966
169, -20.85, -26.62, -18.62, -22.04, -25.08, -15.02, -16.85, -22.11, -18.89, -23.45, -13.97, -24.03, -25.39, -24.70, -21.23, -18.02, 0.000, 0.000, 0.000, 04:17:12.971
170, -20.85, -26.62, -18.62, -22.04, -25.08, -15.02, -16.85, -22.11, -18.82, -23.45, -13.95, -23.96, -25.48, -24.77, -20.97, -17.95, 0.000, 0.000, 0.000, 04:17:12.975
171, -20.70, -26.67, -18.53, -22.17, -24.90, -14.89, -16.63, -21.97, -18.82, -23.45, -13.95, -23.96, -25.48, -24.77, -20.97, -17.95, 0.000, 0.000, 0.000, 04:17:12.978
172, -20.70, -26.67, -18.53, -22.17, -24.90, -14.89, -16.63, -21.97, -18.86, -23.49, -13.72, -23.96, -25.44, -24.70, -21.12, -18.13, 0.000, 0.000, 0.000, 04:17:12.983
173, -20.85, -26.82, -18.53, -22.08, -24.99, -15.04, -16.90, -22.22, -18.86, -23.49, -13.72, -23.96, -25.44, -24.70, -21.12, -18.13, 0.012, 0.934, 0.338, 04:17:12.988
174, -20.85, -26.82, -18.53, -22.08, -24.99, -15.04, -16.90, -22.22, -18.84, -23.45, -13.75, -23.87, -25.50, -24.70, -21.26, -18.10, 0.000, 0.000, 0.000, 04:17:12.991
175, -20.70, -26.46, -18.35, -21.99, -24.97, -15.00, -16.61, -21.99, -18.84, -23.45, -13.75, -23.87, -25.50, -24.70, -21.26, -18.10, 0.000, 0.000, 0.000, 04:17:12.996
176, -20.70, -26.46, -18.35, -21.99, -24.97, -15.00, -16.61, -21.99, -18.89, -23.67, -13.84, -23.76, -25.50, -24.63, -21.23, -18.06, 0.000, 0.000, 0.000, 04:17:12.999
177, -20.92, -26.71, -18.44, -22.06, -24.92, -14.86, -16.61, -22.04, -18.89, -23.67, -13.84, -23.76, -25.50, -24.63, -21.23, -18.06, 0.000, 0.000, 0.000, 04:17:13.003
178, -20.92, -26.71, -18.44, -22.06, -24.92, -14.86, -16.61, -22.04, -18.84, -23.60, -13.72, -23.92, -25.39, -24.68, -21.37, -17.93, 0.000, 0.000, 0.000, 04:17:13.006
179, -20.83, -26.64, -18.55, -22.17, -25.08, -14.95, -16.70, -22.15, -18.84, -23.60, -13.72, -23.92, -25.39, -24.68, -21.37, -17.93, 0.000, 0.000, 0.000, 04:17:13.010
180, -20.83, -26.64, -18.55, -22.17, -25.08, -14.95, -16.70, -22.15, -18.86, -23.67, -13.68, -23.76, -25.39, -24.94, -21.12, -18.04, 0.000, 0.000, 0.000, 04:17:13.015
181, -20.50, -26.58, -18.51, -22.17, -25.01, -15.13, -16.94, -22.17, -18.86, -23.67, -13.68, -23.76, -25.39, -24.94, -21.12, -18.04, 0.000, 0.000, 0.000, 04:17:13.018
182, -20.50, -26.58, -18.51, -22.17, -25.01, -15.13, -16.94, -22.17, -18.86, -23.69, -13.99, -23.92, -25.17, -24.94, -21.14, -18.04, 0.000, 0.000, 0.000, 04:17:13.022
183, -20.72, -26.44, -18.57, -22.08, -25.06, -15.07, -16.85, -22.20, -18.86, -23.69, -13.99, -23.92, -25.17, -24.94, -21.14, -18.04, 0.004, 0.924, 0.310, 04:17:13.028
184, -20.72, -26.44, -18.57, -22.08, -25.06, -15.07, -16.85, -22.20, -19.07, -23.56, -13.90, -24.01, -25.26, -24.88, -21.06, -18.06, 0.000, 0.000, 0.000, 04:17:13.031
185, -20.65, -26.53, -18.55, -22.04, -25.01, -15.07, -16.94, -22.15, -19.07, -23.56, -13.90, -24.01, -25.26, -24.88, -21.06, -18.06, 0.000, 0.000, 0.000, 04:17:13.035
186, -20.65, -26.53, -18.55, -22.04, -25.01, -15.07, -16.94, -22.15, -19.04, -23.34, -14.04, -24.12, -25.55, -24.61, -21.32, -17.97, 0.000, 0.000, 0.000, 04:17:13.038
187, -20.88, -26.64, -18.44, -21.97, -25.01, -15.02, -16.74, -22.08, -19.04, -23.34, -14.04, -24.12, -25.55, -24.61, -21.32, -17.97, 0.000, 0.000, 0.000, 04:17:13.042
188, -20.88, -26.64, -18.44, -21.97, -25.01, -15.02, -16.74, -22.08, -18.89, -23.54, -13.88, -24.05, -25.28, -24.68, -21.10, -17.90, 0.000, 0.000, 0.000, 04:17:13.046
189, -20.72, -26.58, -18.55, -22.02, -24.88, -14.84, -16.90, -22.02, -18.89, -23.54, -13.88, -24.05, -25.28, -24.68, -21.10, -17.90, 0.000, 0.000, 0.000, 04:17:13.050
190, -20.72, -26.58, -18.55, -22.02, -24.88, -14.84, -16.90, -22.02, -18.78, -23.49, -13.88, -23.94, -25.41, -24.97, -21.03, -17.90, 0.000, 0.000, 0.000, 04:17:13.056
191, -20.76, -26.64, -18.44, -22.11, -24.88, -14.95, -16.72, -21.97, -18.78, -23.49, -13.88, -23.94, -25.41, -24.97, -21.03, -17.90, 0.000, 0.000, 0.000, 04:17:13.058
192, -20.76, -26.64, -18.44, -22.11, -24.88, -14.95, -16.72, -21.97, -19.11, -23.63, -13.99, -24.01, -25.32, -24.83, -21.14, -18.19, 0.000, 0.000, 0.000, 04:17:13.062
193, -20.83, -26.55, -18.40, -22.04, -24.99, -14.91, -16.72, -22.02, -19.11, -23.63, -13.99, -24.01, -25.32, -24.83, -21.14, -18.19, -0.002, 0.938, 0.326, 04:17:13.066
194, -20.83, -26.55, -18.40, -22.04, -24.99, -14.91, -16.72, -22.02, -19.04, -23.45, -13.90, -24.01, -25.21, -24.77, -21.12, -18.08, 0.000, 0.000, 0.000, 04:17:13.070
195, -20.72, -26.53, -18.62, -22.20, -24.90, -15.04, -16.88, -22.04, -19.04, -23.45, -13.90, -24.01, -25.21, -24.77, -21.12, -18.08, 0.000, 0.000, 0.000, 04:17:13.074
196, -20.72, -26.53, -18.62, -22.20, -24.90, -15.04, -16.88, -22.04, -19.02, -23.60, -14.01, -23.98, -25.30, -24.63, -21.01, -18.04, 0.000, 0.000, 0.000, 04:17:13.078
197, -20.85, -26.82, -18.33, -22.20, -24.99, -15.07, -16.81, -22.17, -19.02, -23.60, -14.01, -23.98, -25.30, -24.63, -21.01, -18.04, 0.000, 0.000, 0.000, 04:17:13.083
198, -20.85, -26.82, -18.33, -22.20, -24.99, -15.07, -16.81, -22.17, -19.00, -23.45, -13.79, -24.03, -25.17, -24.65, -21.19, -18.08, 0.000, 0.000, 0.000, 04:17:13.086
199, -20.81, -26.76, -18.60, -22.04, -24.99, -14.77, -16.58, -22.20, -19.00, -23.45, -13.79, -24.03, -25.17, -24.65, -21.19, -18.08, 0.000, 0.000, 0.000, 04:17:13.090
200, -20.81, -26.76, -18.60, -22.04, -24.99, -14.77, -16.58, -22.20, -18.95, -23.36, -13.79, -23.87, -25.24, -24.79, -21.08, -18.06, 0.000, 0.000, 0.000, 04:17:13.095
201, -20.85, -26.62, -18.62, -22.24, -25.01, -14.84, -16.67, -21.99, -18.95, -23.36, -13.79, -23.87, -25.24, -24.79, -21.08, -18.06, 0.000, 0.000, 0.000, 04:17:13.098
202, -20.85, -26.62, -18.62, -22.24, -25.01, -14.84, -16.67, -21.99, -18.86, -23.47, -13.90, -24.01, -25.35, -24.79, -21.01, -18.04, 0.000, 0.000, 0.000, 04:17:13.102
203, -20.85, -26.53, -18.55, -22.31, -24.99, -14.75, -16.81, -22.02, -18.86, -23.47, -13.90, -24.01, -25.35, -24.79, -21.01, -18.04, 0.000, 0.936, 0.336, 04:17:13.107
204, -20.85, -26.53, -18.55, -22.31, -24.99, -14.75, -16.81, -22.02, -18.57, -23.42, -13.68, -23.83, -25.30, -24.88, -21.28, -18.04, 0.000, 0.000, 0.000, 04:17:13.111
205, -20.94, -26.69, -18.60, -21.99, -25.12, -14.95, -16.72, -22.13, -18.57, -23.42, -13.68, -23.83, -25.30, -24.88, -21.28, -18.04, 0.000, 0.000, 0.000, 04:17:13.115
206, -20.94, -26.69, -18.60, -21.99, -25.12, -14.95, -16.72, -22.13, -18.73, -23.51, -14.01, -23.72, -25.28, -24.94, -21.14, -17.88, 0.000, 0.000, 0.000, 04:17:13.117
