%OpenBCI Raw EEG Data
%
%Sample Rate = 250.0 Hz
%First Column = SampleIndex
%Last Column = Timestamp 
%Other Columns = EEG data in microvolts followed by Accel Data (in G) interleaved with Aux Data
0, 0.00, 0.00, 0.00, 0.00, 0.00, 0.00, 0.00, 0.00, -6559.45, -6454.04, -6696.58, -6452.70, -90836.13, -85869.27, -100894.70, -137969.30, 0.018, 0.934, 0.312, 03:55:06.267
1, -6833.22, -6998.64, -6944.60, -6896.09, -74359.47, -84018.51, -112693.49, -133504.38, -6559.45, -6454.04, -6696.58, -6452.70, -90836.13, -85869.27, -100894.70, -137969.30, 0.000, 0.000, 0.000, 03:55:06.271
2, -6833.22, -6998.64, -6944.60, -6896.09, -74359.47, -84018.51, -112693.49, -133504.38, -6561.44, -6454.69, -6689.99, -6443.27, -90036.11, -86524.70, -99422.91, -136580.44, 0.000, 0.000, 0.000, 03:55:06.274
3, -6835.12, -6993.48, -6943.55, -6895.69, -74362.93, -84021.52, -112693.22, -133503.88, -6561.44, -6454.69, -6689.99, -6443.27, -90036.11, -86524.70, -99422.91, -136580.44, 0.000, 0.000, 0.000, 03:55:06.279
4, -6835.12, -6993.48, -6943.55, -6895.69, -74362.93, -84021.52, -112693.22, -133503.88, -6538.18, -6446.18, -6686.01, -6445.86, -90018.38, -86529.84, -99425.09, -136582.61, 0.000, 0.000, 0.000, 03:55:06.281
5, -6830.58, -6994.75, -6942.88, -6894.53, -74355.55, -84024.88, -112689.89, -133499.45, -6538.18, -6446.18, -6686.01, -6445.86, -90018.38, -86529.84, -99425.09, -136582.61, 0.000, 0.000, 0.000, 03:55:06.286
6, -6830.58, -6994.75, -6942.88, -6894.53, -74355.55, -84024.88, -112689.89, -133499.45, -6559.48, -6450.31, -6686.26, -6440.19, -90032.82, -86520.65, -99419.55, -136575.34, 0.000, 0.000, 0.000, 03:55:06.289
7, -6836.75, -6996.45, -6943.50, -6893.21, -74367.72, -84023.52, -112691.37, -133497.08, -6559.48, -6450.31, -6686.26, -6440.19, -90032.82, -86520.65, -99419.55, -136575.34, 0.024, 0.992, 0.320, 03:55:06.294
8, -6836.75, -6996.45, -6943.50, -6893.21, -74367.72, -84023.52, -112691.37, -133497.08, -6539.90, -6447.34, -6688.13, -6448.05, -90021.38, -86533.44, -99426.95, -136584.42, 0.000, 0.000, 0.000, 03:55:06.299
9, -6830.65, -6994.06, -6946.27, -6898.69, -74357.97, -84030.24, -112693.96, -133503.45, -6539.90, -6447.34, -6688.13, -6448.05, -90021.38, -86533.44, -99426.95, -136584.42, 0.000, 0.000, 0.000, 03:55:06.302
10, -6830.65, -6994.06, -6946.27, -6898.69, -74357.97, -84030.24, -112693.96, -133503.45, -6564.13, -6454.63, -6692.00, -6446.13, -90038.37, -86527.87, -99425.43, -136581.98, 0.000, 0.000, 0.000, 03:55:06.307
11, -6848.22, -7004.41, -6949.76, -6897.73, -74378.53, -84026.55, -112694.98, -133496.97, -6564.13, -6454.63, -6692.00, -6446.13, -90038.37, -86527.87, -99425.43, -136581.98, 0.000, 0.000, 0.000, 03:55:06.309
12, -6848.22, -7004.41, -6949.76, -6897.73, -74378.53, -84026.55, -112694.98, -133496.97, -6547.79, -6449.42, -6690.52, -6449.64, -90026.19, -86535.11, -99428.55, -136584.47, 0.000, 0.000, 0.000, 03:55:06.314
13, -6830.80, -7001.06, -6947.28, -6899.98, -74359.06, -84027.09, -112694.43, -133507.53, -6547.79, -6449.42, -6690.52, -6449.64, -90026.19, -86535.11, -99428.55, -136584.47, 0.000, 0.000, 0.000, 03:55:06.318
14, -6830.80, -7001.06, -6947.28, -6899.98, -74359.06, -84027.09, -112694.43, -133507.53, -6560.24, -6453.26, -6692.31, -6446.20, -90036.73, -86529.21, -99425.92, -136582.08, 0.000, 0.000, 0.000, 03:55:06.321
15, -6847.64, -7000.63, -6950.41, -6897.84, -74383.14, -84021.55, -112696.91, -133501.13, -6560.24, -6453.26, -6692.31, -6446.20, -90036.73, -86529.21, -99425.92, -136582.08, 0.000, 0.000, 0.000, 03:55:06.326
16, -6847.64, -7000.63, -6950.41, -6897.84, -74383.14, -84021.55, -112696.91, -133501.13, -6550.47, -6452.61, -6692.07, -6450.56, -90029.00, -86536.19, -99429.14, -136586.52, 0.016, 0.956, 0.308, 03:55:06.331
17, -6830.89, -6998.00, -6947.46, -6900.70, -74358.38, -84032.30, -112693.18, -133506.47, -6550.47, -6452.61, -6692.07, -6450.56, -90029.00, -86536.19, -99429.14, -136586.52, 0.000, 0.000, 0.000, 03:55:06.333
18, -6830.89, -6998.00, -6947.46, -6900.70, -74358.38, -84032.30, -112693.18, -133506.47, -6558.49, -6453.26, -6690.66, -6445.35, -90033.90, -86527.18, -99425.07, -136580.00, 0.000, 0.000, 0.000, 03:55:06.338
19, -6845.71, -6999.16, -6947.37, -6893.52, -74381.95, -84022.73, -112693.00, -133494.84, -6558.49, -6453.26, -6690.66, -6445.35, -90033.90, -86527.18, -99425.07, -136580.00, 0.000, 0.000, 0.000, 03:55:06.342
20, -6845.71, -6999.16, -6947.37, -6893.52, -74381.95, -84022.73, -112693.00, -133494.84, -6546.56, -6449.44, -6686.84, -6444.97, -90025.11, -86528.85, -99422.92, -136580.06, 0.000, 0.000, 0.000, 03:55:06.345
21, -6824.52, -6991.40, -6944.15, -6897.37, -74355.00, -84032.72, -112690.96, -133504.75, -6546.56, -6449.44, -6686.84, -6444.97, -90025.11, -86528.85, -99422.92, -136580.06, 0.000, 0.000, 0.000, 03:55:06.350
22, -6824.52, -6991.40, -6944.15, -6897.37, -74355.00, -84032.72, -112690.96, -133504.75, -6555.03, -6450.78, -6689.32, -6444.63, -90030.21, -86526.91, -99423.80, -136579.48, 0.000, 0.000, 0.000, 03:55:06.353
23, -6848.53, -6998.78, -6945.98, -6892.74, -74384.19, -84022.41, -112691.70, -133490.72, -6555.03, -6450.78, -6689.32, -6444.63, -90030.21, -86526.91, -99423.80, -136579.48, 0.000, 0.000, 0.000, 03:55:06.358
24, -6848.53, -6998.78, -6945.98, -6892.74, -74384.19, -84022.41, -112691.70, -133490.72, -6552.97, -6449.82, -6688.09, -6444.81, -90028.98, -86529.91, -99423.08, -136579.44, 0.000, 0.000, 0.000, 03:55:06.362
25, -6826.74, -6995.38, -6944.62, -6898.71, -74357.63, -84030.09, -112691.39, -133505.72, -6552.97, -6449.82, -6688.09, -6444.81, -90028.98, -86529.91, -99423.08, -136579.44, 0.000, 0.000, 0.000, 03:55:06.365
26, -6826.74, -6995.38, -6944.62, -6898.71, -74357.63, -84030.09, -112691.39, -133505.72, -6551.27, -6447.72, -6689.16, -6445.30, -90028.04, -86530.20, -99424.89, -136580.70, 0.012, 0.946, 0.294, 03:55:06.370
27, -6846.09, -6996.50, -6945.27, -6892.38, -74384.86, -84017.37, -112691.48, -133491.52, -6551.27, -6447.72, -6689.16, -6445.30, -90028.04, -86530.20, -99424.89, -136580.70, 0.000, 0.000, 0.000, 03:55:06.376
28, -6846.09, -6996.50, -6945.27, -6892.38, -74384.86, -84017.37, -112691.48, -133491.52, -6554.31, -6448.01, -6686.48, -6442.22, -90028.89, -86527.73, -99420.11, -136576.91, 0.000, 0.000, 0.000, 03:55:06.378
29, -6825.48, -6993.59, -6941.94, -6895.78, -74356.56, -84028.23, -112686.98, -133500.44, -6554.31, -6448.01, -6686.48, -6442.22, -90028.89, -86527.73, -99420.11, -136576.91, 0.000, 0.000, 0.000, 03:55:06.383
30, -6825.48, -6993.59, -6941.94, -6895.78, -74356.56, -84028.23, -112686.98, -133500.44, -6546.87, -6443.65, -6686.50, -6444.25, -90024.13, -86528.83, -99422.91, -136577.98, 0.000, 0.000, 0.000, 03:55:06.386
31, -6844.53, -6996.88, -6946.32, -6892.41, -74384.46, -84020.85, -112690.63, -133491.30, -6546.87, -6443.65, -6686.50, -6444.25, -90024.13, -86528.83, -99422.91, -136577.98, 0.000, 0.000, 0.000, 03:55:06.390
32, -6844.53, -6996.88, -6946.32, -6892.41, -74384.46, -84020.85, -112690.63, -133491.30, -6556.71, -6448.19, -6687.49, -6443.36, -90030.99, -86527.71, -99420.34, -136577.47, 0.000, 0.000, 0.000, 03:55:06.393
33, -6826.94, -6993.06, -6942.76, -6897.46, -74361.39, -84033.21, -112690.05, -133503.55, -6556.71, -6448.19, -6687.49, -6443.36, -90030.99, -86527.71, -99420.34, -136577.47, 0.000, 0.000, 0.000, 03:55:06.398
34, -6826.94, -6993.06, -6942.76, -6897.46, -74361.39, -84033.21, -112690.05, -133503.55, -6546.36, -6445.66, -6688.38, -6446.56, -90023.32, -86532.05, -99424.78, -136580.44, 0.000, 0.000, 0.000, 03:55:06.402
35, -6844.31, -6996.21, -6944.28, -6891.96, -74383.36, -84023.87, -112688.88, -133490.45, -6546.36, -6445.66, -6688.38, -6446.56, -90023.32, -86532.05, -99424.78, -136580.44, 0.000, 0.000, 0.000, 03:55:06.405
36, -6844.31, -6996.21, -6944.28, -6891.96, -74383.36, -84023.87, -112688.88, -133490.45, -6557.64, -6448.90, -6685.09, -6440.07, -90030.61, -86524.63, -99417.29, -136573.63, 0.024, 0.952, 0.318, 03:55:06.410
37, -6827.25, -6993.12, -6942.03, -6895.11, -74362.95, -84029.66, -112686.88, -133500.27, -6557.64, -6448.90, -6685.09, -6440.07, -90030.61, -86524.63, -99417.29, -136573.63, 0.000, 0.000, 0.000, 03:55:06.415
38, -6827.25, -6993.12, -6942.03, -6895.11, -74362.95, -84029.66, -112686.88, -133500.27, -6542.98, -6446.13, -6687.69, -6446.60, -90021.47, -86533.01, -99424.78, -136580.53, 0.000, 0.000, 0.000, 03:55:06.417
39, -6843.08, -6997.97, -6948.13, -6894.66, -74384.73, -84024.18, -112691.23, -133494.88, -6542.98, -6446.13, -6687.69, -6446.60, -90021.47, -86533.01, -99424.78, -136580.53, 0.000, 0.000, 0.000, 03:55:06.422
40, -6843.08, -6997.97, -6948.13, -6894.66, -74384.73, -84024.18, -112691.23, -133494.88, -6563.57, -6452.77, -6689.27, -6443.90, -90035.86, -86527.98, -99420.51, -136577.16, 0.000, 0.000, 0.000, 03:55:06.426
41, -6835.39, -6998.67, -6946.36, -6898.84, -74372.34, -84033.46, -112690.59, -133501.98, -6563.57, -6452.77, -6689.27, -6443.90, -90035.86, -86527.98, -99420.51, -136577.16, 0.000, 0.000, 0.000, 03:55:06.429
42, -6835.39, -6998.67, -6946.36, -6898.84, -74372.34, -84033.46, -112690.59, -133501.98, -6546.18, -6448.05, -6691.15, -6450.80, -90024.13, -86537.34, -99428.09, -136583.53, 0.000, 0.000, 0.000, 03:55:06.434
43, -6842.81, -6999.83, -6949.16, -6896.99, -74384.44, -84028.90, -112692.13, -133496.30, -6546.18, -6448.05, -6691.15, -6450.80, -90024.13, -86537.34, -99428.09, -136583.53, 0.000, 0.000, 0.000, 03:55:06.438
44, -6842.81, -6999.83, -6949.16, -6896.99, -74384.44, -84028.90, -112692.13, -133496.30, -6564.60, -6455.41, -6690.70, -6445.06, -90037.56, -86528.96, -99421.34, -136577.67, 0.000, 0.000, 0.000, 03:55:06.442
45, -6836.12, -6998.40, -6947.64, -6898.15, -74378.11, -84034.40, -112691.10, -133500.59, -6564.60, -6455.41, -6690.70, -6445.06, -90037.56, -86528.96, -99421.34, -136577.67, 0.000, 0.000, 0.000, 03:55:06.447
46, -6836.12, -6998.40, -6947.64, -6898.15, -74378.11, -84034.40, -112691.10, -133500.59, -6543.54, -6449.95, -6689.72, -6449.91, -90022.56, -86536.48, -99426.52, -136582.20, 0.018, 0.940, 0.316, 03:55:06.450
47, -6841.06, -6999.23, -6947.73, -6896.74, -74382.31, -84032.45, -112690.77, -133495.00, -6543.54, -6449.95, -6689.72, -6449.91, -90022.56, -86536.48, -99426.52, -136582.20, 0.000, 0.000, 0.000, 03:55:06.455
48, -6841.06, -6999.23, -6947.73, -6896.74, -74382.31, -84032.45, -112690.77, -133495.00, -6568.08, -6455.83, -6690.55, -6444.63, -90037.98, -86527.58, -99420.73, -136576.34, 0.000, 0.000, 0.000, 03:55:06.457
49, -6842.45, -7001.75, -6947.61, -6898.91, -74384.01, -84034.38, -112691.73, -133498.63, -6568.08, -6455.83, -6690.55, -6444.63, -90037.98, -86527.58, -99420.73, -136576.34, 0.000, 0.000, 0.000, 03:55:06.462
50, -6842.45, -7001.75, -6947.61, -6898.91, -74384.01, -84034.38, -112691.73, -133498.63, -6547.09, -6450.98, -6692.83, -6452.93, -90025.70, -86540.63, -99429.32, -136585.19, 0.000, 0.000, 0.000, 03:55:06.465
51, -6840.73, -7001.93, -6949.78, -6900.32, -74383.32, -84032.84, -112693.34, -133501.84, -6547.09, -6450.98, -6692.83, -6452.93, -90025.70, -86540.63, -99429.32, -136585.19, 0.000, 0.000, 0.000, 03:55:06.470
52, -6840.73, -7001.93, -6949.78, -6900.32, -74383.32, -84032.84, -112693.34, -133501.84, -6568.51, -6454.45, -6692.00, -6446.04, -90039.30, -86530.77, -99422.03, -136577.83, 0.000, 0.000, 0.000, 03:55:06.473
53, -6843.93, -7000.99, -6945.98, -6896.07, -74387.63, -84028.59, -112689.47, -133496.39, -6568.51, -6454.45, -6692.00, -6446.04, -90039.30, -86530.77, -99422.03, -136577.83, 0.000, 0.000, 0.000, 03:55:06.478
54, -6843.93, -7000.99, -6945.98, -6896.07, -74387.63, -84028.59, -112689.47, -133496.39, -6544.34, -6444.19, -6686.75, -6446.56, -90019.88, -86534.77, -99422.43, -136578.00, 0.000, 0.000, 0.000, 03:55:06.482
55, -6832.68, -6995.22, -6940.71, -6894.06, -74373.57, -84027.27, -112685.27, -133496.81, -6544.34, -6444.19, -6686.75, -6446.56, -90019.88, -86534.77, -99422.43, -136578.00, 0.000, 0.000, 0.000, 03:55:06.485
56, -6832.68, -6995.22, -6940.71, -6894.06, -74373.57, -84027.27, -112685.27, -133496.81, -6562.96, -6451.38, -6688.04, -6441.82, -90034.05, -86526.62, -99418.01, -136573.25, 0.024, 0.944, 0.304, 03:55:06.490
57, -6844.64, -6999.67, -6945.69, -6894.26, -74391.70, -84027.67, -112688.39, -133495.52, -6562.96, -6451.38, -6688.04, -6441.82, -90034.05, -86526.62, -99418.01, -136573.25, 0.000, 0.000, 0.000, 03:55:06.494
58, -6844.64, -6999.67, -6945.69, -6894.26, -74391.70, -84027.67, -112688.39, -133495.52, -6544.41, -6446.96, -6686.39, -6446.67, -90021.18, -86534.58, -99421.80, -136577.80, 0.000, 0.000, 0.000, 03:55:06.497
59, -6829.82, -6994.24, -6942.27, -6894.04, -74372.34, -84031.98, -112684.33, -133496.70, -6544.41, -6446.96, -6686.39, -6446.67, -90021.18, -86534.58, -99421.80, -136577.80, 0.000, 0.000, 0.000, 03:55:06.501
60, -6829.82, -6994.24, -6942.27, -6894.04, -74372.34, -84031.98, -112684.33, -133496.70, -6560.48, -6448.54, -6685.72, -6440.52, -90030.86, -86524.98, -99416.35, -136571.19, 0.000, 0.000, 0.000, 03:55:06.505
61, -6847.05, -6999.05, -6943.23, -6892.65, -74394.59, -84028.56, -112687.26, -133491.25, -6560.48, -6448.54, -6685.72, -6440.52, -90030.86, -86524.98, -99416.35, -136571.19, 0.000, 0.000, 0.000, 03:55:06.510
62, -6847.05, -6999.05, -6943.23, -6892.65, -74394.59, -84028.56, -112687.26, -133491.25, -6549.55, -6450.44, -6689.99, -6449.33, -90025.96, -86537.91, -99424.36, -136580.33, 0.000, 0.000, 0.000, 03:55:06.513
63, -6835.07, -7000.57, -6948.44, -6901.23, -74379.00, -84040.26, -112691.13, -133504.17, -6549.55, -6450.44, -6689.99, -6449.33, -90025.96, -86537.91, -99424.36, -136580.33, 0.000, 0.000, 0.000, 03:55:06.518
64, -6835.07, -7000.57, -6948.44, -6901.23, -74379.00, -84040.26, -112691.13, -133504.17, -6565.58, -6457.17, -6694.08, -6449.39, -90038.10, -86535.36, -99425.27, -136580.27, 0.000, 0.000, 0.000, 03:55:06.522
65, -6853.98, -7006.24, -6953.25, -6898.44, -74405.18, -84033.88, -112692.77, -133492.80, -6565.58, -6457.17, -6694.08, -6449.39, -90038.10, -86535.36, -99425.27, -136580.27, 0.000, 0.000, 0.000, 03:55:06.525
66, -6853.98, -7006.24, -6953.25, -6898.44, -74405.18, -84033.88, -112692.77, -133492.80, -6555.14, -6454.65, -6692.25, -6451.29, -90030.56, -86539.70, -99425.92, -136581.81, 0.016, 0.938, 0.296, 03:55:06.529
67, -6834.38, -7002.02, -6949.49, -6902.06, -74379.56, -84041.84, -112690.74, -133503.28, -6555.14, -6454.65, -6692.25, -6451.29, -90030.56, -86539.70, -99425.92, -136581.81, 0.000, 0.000, 0.000, 03:55:06.532
68, -6834.38, -7002.02, -6949.49, -6902.06, -74379.56, -84041.84, -112690.74, -133503.28, -6561.40, -6454.38, -6692.76, -6449.06, -90035.13, -86535.24, -99424.63, -136579.38, 0.000, 0.000, 0.000, 03:55:06.538
69, -6852.40, -7003.00, -6949.20, -6895.58, -74405.80, -84031.54, -112690.49, -133489.91, -6561.40, -6454.38, -6692.76, -6449.06, -90035.13, -86535.24, -99424.63, -136579.38, 0.000, 0.000, 0.000, 03:55:06.543
70, -6852.40, -7003.00, -6949.20, -6895.58, -74405.80, -84031.54, -112690.49, -133489.91, -6554.27, -6453.04, -6690.01, -6448.39, -90029.85, -86536.81, -99422.61, -136578.72, 0.000, 0.000, 0.000, 03:55:06.547
71, -6829.08, -6997.03, -6946.23, -6898.17, -74376.61, -84041.33, -112686.07, -133498.03, -6554.27, -6453.04, -6690.01, -6448.39, -90029.85, -86536.81, -99422.61, -136578.72, 0.000, 0.000, 0.000, 03:55:06.550
72, -6829.08, -6997.03, -6946.23, -6898.17, -74376.61, -84041.33, -112686.07, -133498.03, -6552.55, -6449.93, -6687.28, -6444.72, -90028.11, -86531.45, -99420.11, -136574.61, 0.000, 0.000, 0.000, 03:55:06.553
73, -6846.67, -6997.24, -6945.85, -6889.79, -74401.60, -84029.32, -112684.10, -133482.20, -6552.55, -6449.93, -6687.28, -6444.72, -90028.11, -86531.45, -99420.11, -136574.61, 0.000, 0.000, 0.000, 03:55:06.557
74, -6846.67, -6997.24, -6945.85, -6889.79, -74401.60, -84029.32, -112684.10, -133482.20, -6552.08, -6448.93, -6683.91, -6441.79, -90026.16, -86529.27, -99415.51, -136571.50, 0.000, 0.000, 0.000, 03:55:06.561
75, -6826.87, -6993.61, -6941.36, -6894.82, -74374.87, -84038.96, -112682.56, -133494.31, -6552.08, -6448.93, -6683.91, -6441.79, -90026.16, -86529.27, -99415.51, -136571.50, 0.022, 0.944, 0.296, 03:55:06.566
76, -6826.87, -6993.61, -6941.36, -6894.82, -74374.87, -84038.96, -112682.56, -133494.31, -6553.24, -6450.60, -6689.43, -6447.23, -90027.93, -86534.59, -99422.30, -136577.05, 0.000, 0.000, 0.000, 03:55:06.570
77, -6852.62, -7003.20, -6950.16, -6895.54, -74408.06, -84032.68, -112689.13, -133487.88, -6553.24, -6450.60, -6689.43, -6447.23, -90027.93, -86534.59, -99422.30, -136577.05, 0.000, 0.000, 0.000, 03:55:06.574
78, -6852.62, -7003.20, -6950.16, -6895.54, -74408.06, -84032.68, -112689.13, -133487.88, -6560.77, -6453.95, -6689.92, -6446.85, -90034.19, -86535.29, -99420.47, -136576.64, 0.000, 0.000, 0.000, 03:55:06.577
79, -6832.35, -6998.87, -6945.96, -6898.91, -74382.06, -84039.92, -112686.14, -133499.67, -6560.77, -6453.95, -6689.92, -6446.85, -90034.19, -86535.29, -99420.47, -136576.64, 0.000, 0.000, 0.000, 03:55:06.581
80, -6832.35, -6998.87, -6945.96, -6898.91, -74382.06, -84039.92, -112686.14, -133499.67, -6552.08, -6449.01, -6689.23, -6447.65, -90026.27, -86536.99, -99422.45, -136577.33, 0.000, 0.000, 0.000, 03:55:06.585
81, -6850.41, -7001.26, -6946.52, -6893.86, -74406.34, -84029.28, -112686.90, -133488.13, -6552.08, -6449.01, -6689.23, -6447.65, -90026.27, -86536.99, -99422.45, -136577.33, 0.000, 0.000, 0.000, 03:55:06.589
82, -6850.41, -7001.26, -6946.52, -6893.86, -74406.34, -84029.28, -112686.90, -133488.13, -6564.26, -6454.42, -6689.52, -6445.33, -90035.33, -86533.73, -99418.55, -136574.77, 0.000, 0.000, 0.000, 03:55:06.593
83, -6835.48, -6999.72, -6945.22, -6899.67, -74386.38, -84041.23, -112686.65, -133500.17, -6564.26, -6454.42, -6689.52, -6445.33, -90035.33, -86533.73, -99418.55, -136574.77, 0.000, 0.000, 0.000, 03:55:06.598
84, -6835.48, -6999.72, -6945.22, -6899.67, -74386.38, -84041.23, -112686.65, -133500.17, -6550.11, -6450.02, -6689.70, -6449.17, -90025.34, -86538.51, -99423.33, -136578.44, 0.000, 0.000, 0.000, 03:55:06.602
85, -6847.28, -6999.43, -6946.45, -6893.19, -74404.38, -84031.85, -112685.55, -133487.78, -6550.11, -6450.02, -6689.70, -6449.17, -90025.34, -86538.51, -99423.33, -136578.44, 0.024, 0.952, 0.306, 03:55:06.605
86, -6847.28, -6999.43, -6946.45, -6893.19, -74404.38, -84031.85, -112685.55, -133487.78, -6564.39, -6452.55, -6686.48, -6442.22, -90034.03, -86530.35, -99414.68, -136571.05, 0.000, 0.000, 0.000, 03:55:06.608
87, -6833.60, -6995.74, -6941.94, -6894.91, -74387.07, -84038.89, -112682.59, -133494.67, -6564.39, -6452.55, -6686.48, -6442.22, -90034.03, -86530.35, -99414.68, -136571.05, 0.000, 0.000, 0.000, 03:55:06.613
88, -6833.60, -6995.74, -6941.94, -6894.91, -74387.07, -84038.89, -112682.59, -133494.67, -6545.42, -6444.57, -6685.52, -6445.89, -90020.80, -86536.70, -99419.15, -136574.63, 0.000, 0.000, 0.000, 03:55:06.617
89, -6844.77, -6996.92, -6941.60, -6891.62, -74401.20, -84030.98, -112682.83, -133486.00, -6545.42, -6444.57, -6685.52, -6445.89, -90020.80, -86536.70, -99419.15, -136574.63, 0.000, 0.000, 0.000, 03:55:06.621
90, -6844.77, -6996.92, -6941.60, -6891.62, -74401.20, -84030.98, -112682.83, -133486.00, -6566.41, -6450.49, -6685.97, -6440.59, -90034.27, -86530.02, -99413.23, -136569.44, 0.000, 0.000, 0.000, 03:55:06.627
91, -6837.22, -6997.10, -6940.84, -6894.22, -74392.62, -84035.09, -112681.96, -133492.89, -6566.41, -6450.49, -6685.97, -6440.59, -90034.27, -86530.02, -99413.23, -136569.44, 0.000, 0.000, 0.000, 03:55:06.630
92, -6837.22, -6997.10, -6940.84, -6894.22, -74392.62, -84035.09, -112681.96, -133492.89, -6546.94, -6448.08, -6687.80, -6448.12, -90023.26, -86541.23, -99421.36, -136577.11, 0.000, 0.000, 0.000, 03:55:06.634
93, -6844.75, -7000.41, -6946.34, -6894.80, -74403.26, -84032.86, -112684.51, -133490.88, -6546.94, -6448.08, -6687.80, -6448.12, -90023.26, -86541.23, -99421.36, -136577.11, 0.000, 0.000, 0.000, 03:55:06.637
94, -6844.75, -7000.41, -6946.34, -6894.80, -74403.26, -84032.86, -112684.51, -133490.88, -6567.03, -6453.31, -6686.01, -6440.74, -90036.09, -86530.48, -99413.05, -136569.33, 0.000, 0.000, 0.000, 03:55:06.641
95, -6839.81, -6998.60, -6943.55, -6894.08, -74398.43, -84036.14, -112682.12, -133491.25, -6567.03, -6453.31, -6686.01, -6440.74, -90036.09, -86530.48, -99413.05, -136569.33, 0.016, 0.948, 0.298, 03:55:06.645
96, -6839.81, -6998.60, -6943.55, -6894.08, -74398.43, -84036.14, -112682.12, -133491.25, -6544.75, -6447.85, -6686.23, -6447.49, -90021.47, -86539.76, -99419.84, -136575.75, 0.000, 0.000, 0.000, 03:55:06.651
97, -6839.95, -6997.57, -6944.53, -6893.97, -74399.68, -84038.51, -112682.98, -133489.55, -6544.75, -6447.85, -6686.23, -6447.49, -90021.47, -86539.76, -99419.84, -136575.75, 0.000, 0.000, 0.000, 03:55:06.654
98, -6839.95, -6997.57, -6944.53, -6893.97, -74399.68, -84038.51, -112682.98, -133489.55, -6567.52, -6456.82, -6687.91, -6443.00, -90037.61, -86532.09, -99414.79, -136570.94, 0.000, 0.000, 0.000, 03:55:06.658
99, -6844.46, -7000.43, -6946.30, -6895.76, -74406.48, -84044.16, -112684.66, -133490.42, -6567.52, -6456.82, -6687.91, -6443.00, -90037.61, -86532.09, -99414.79, -136570.94, 0.000, 0.000, 0.000, 03:55:06.661
100, -6844.46, -7000.43, -6946.30, -6895.76, -74406.48, -84044.16, -112684.66, -133490.42, -6546.62, -6454.45, -6689.03, -6450.65, -90025.18, -86543.80, -99422.39, -136578.45, 0.000, 0.000, 0.000, 03:55:06.665
101, -6840.39, -7000.23, -6948.11, -6897.73, -74400.28, -84046.58, -112684.86, -133491.28, -6546.62, -6454.45, -6689.03, -6450.65, -90025.18, -86543.80, -99422.39, -136578.45, 0.000, 0.000, 0.000, 03:55:06.669
102, -6840.39, -7000.23, -6948.11, -6897.73, -74400.28, -84046.58, -112684.86, -133491.28, -6569.24, -6458.63, -6689.39, -6444.77, -90038.77, -86534.48, -99416.45, -136572.19, 0.000, 0.000, 0.000, 03:55:06.673
103, -6848.75, -7002.62, -6946.77, -6895.71, -74411.80, -84041.39, -112684.53, -133487.45, -6569.24, -6458.63, -6689.39, -6444.77, -90038.77, -86534.48, -99416.45, -136572.19, 0.000, 0.000, 0.000, 03:55:06.677
104, -6848.75, -7002.62, -6946.77, -6895.71, -74411.80, -84041.39, -112684.53, -133487.45, -6549.91, -6453.55, -6690.06, -6451.43, -90026.74, -86545.75, -99422.61, -136578.98, 0.000, 0.000, 0.000, 03:55:06.683
105, -6839.39, -7002.58, -6948.06, -6900.12, -74400.06, -84044.50, -112685.89, -133496.48, -6549.91, -6453.55, -6690.06, -6451.43, -90026.74, -86545.75, -99422.61, -136578.98, 0.008, 0.948, 0.300, 03:55:06.685
106, -6839.39, -7002.58, -6948.06, -6900.12, -74400.06, -84044.50, -112685.89, -133496.48, -6567.12, -6457.24, -6690.59, -6446.38, -90038.48, -86538.04, -99418.19, -136573.94, 0.000, 0.000, 0.000, 03:55:06.689
107, -6848.48, -7002.94, -6947.97, -6895.62, -74414.81, -84037.88, -112684.39, -133488.66, -6567.12, -6457.24, -6690.59, -6446.38, -90038.48, -86538.04, -99418.19, -136573.94, 0.000, 0.000, 0.000, 03:55:06.693
108, -6848.48, -7002.94, -6947.97, -6895.62, -74414.81, -84037.88, -112684.39, -133488.66, -6547.14, -6450.91, -6686.84, -6448.21, -90023.64, -86542.98, -99419.15, -136575.64, 0.000, 0.000, 0.000, 03:55:06.697
109, -6829.91, -6994.91, -6941.49, -6894.73, -74390.73, -84043.56, -112679.38, -133492.23, -6547.14, -6450.91, -6686.84, -6448.21, -90023.64, -86542.98, -99419.15, -136575.64, 0.000, 0.000, 0.000, 03:55:06.701
110, -6829.91, -6994.91, -6941.49, -6894.73, -74390.73, -84043.56, -112679.38, -133492.23, -6559.63, -6452.30, -6685.61, -6442.24, -90030.86, -86533.30, -99413.70, -136569.09, 0.000, 0.000, 0.000, 03:55:06.705
111, -6848.93, -7000.01, -6944.58, -6893.70, -74415.23, -84042.31, -112682.96, -133485.81, -6559.63, -6452.30, -6685.61, -6442.24, -90030.86, -86533.30, -99413.70, -136569.09, 0.000, 0.000, 0.000, 03:55:06.711
112, -6848.93, -7000.01, -6944.58, -6893.70, -74415.23, -84042.31, -112682.96, -133485.81, -6552.68, -6454.98, -6690.46, -6451.72, -90027.50, -86545.68, -99421.90, -136578.52, 0.000, 0.000, 0.000, 03:55:06.713
113, -6832.59, -6998.87, -6946.48, -6901.23, -74393.27, -84053.09, -112684.59, -133499.00, -6552.68, -6454.98, -6690.46, -6451.72, -90027.50, -86545.68, -99421.90, -136578.52, 0.000, 0.000, 0.000, 03:55:06.716
114, -6832.59, -6998.87, -6946.48, -6901.23, -74393.27, -84053.09, -112684.59, -133499.00, -6558.85, -6452.32, -6688.65, -6446.35, -90031.05, -86538.71, -99417.59, -136573.09, 0.000, 0.000, 0.000, 03:55:06.721
115, -6848.04, -6999.54, -6943.84, -6892.54, -74415.50, -84037.44, -112681.17, -133484.91, -6558.85, -6452.32, -6688.65, -6446.35, -90031.05, -86538.71, -99417.59, -136573.09, 0.014, 0.952, 0.306, 03:55:06.725
116, -6848.04, -6999.54, -6943.84, -6892.54, -74415.50, -84037.44, -112681.17, -133484.91, -6550.92, -6449.08, -6687.04, -6447.52, -90025.00, -86543.25, -99417.94, -136574.45, 0.000, 0.000, 0.000, 03:55:06.729
117, -6829.55, -6998.04, -6943.01, -6899.78, -74390.20, -84046.52, -112681.63, -133499.70, -6550.92, -6449.08, -6687.04, -6447.52, -90025.00, -86543.25, -99417.94, -136574.45, 0.000, 0.000, 0.000, 03:55:06.733
118, -6829.55, -6998.04, -6943.01, -6899.78, -74390.20, -84046.52, -112681.63, -133499.70, -6556.66, -6451.50, -6690.48, -6448.59, -90029.70, -86542.78, -99420.63, -136575.50, 0.000, 0.000, 0.000, 03:55:06.737
119, -6849.98, -7003.02, -6947.44, -6896.61, -74418.45, -84037.13, -112684.37, -133489.84, -6556.66, -6451.50, -6690.48, -6448.59, -90029.70, -86542.78, -99420.63, -136575.50, 0.000, 0.000, 0.000, 03:55:06.740
120, -6849.98, -7003.02, -6947.44, -6896.61, -74418.45, -84037.13, -112684.37, -133489.84, -6554.27, -6453.98, -6689.97, -6450.13, -90028.89, -86545.55, -99420.76, -136577.17, 0.000, 0.000, 0.000, 03:55:06.745
121, -6826.80, -6997.77, -6944.98, -6900.65, -74389.64, -84049.20, -112681.71, -133501.25, -6554.27, -6453.98, -6689.97, -6450.13, -90028.89, -86545.55, -99420.76, -136577.17, 0.000, 0.000, 0.000, 03:55:06.749
122, -6826.80, -6997.77, -6944.98, -6900.65, -74389.64, -84049.20, -112681.71, -133501.25, -6550.31, -6451.14, -6688.92, -6449.06, -90025.42, -86542.64, -99420.71, -136575.61, 0.000, 0.000, 0.000, 03:55:06.753
123, -6847.23, -7000.66, -6946.72, -6895.67, -74416.71, -84043.14, -112683.21, -133487.50, -6550.31, -6451.14, -6688.92, -6449.06, -90025.42, -86542.64, -99420.71, -136575.61, 0.000, 0.000, 0.000, 03:55:06.758
124, -6847.23, -7000.66, -6946.72, -6895.67, -74416.71, -84043.14, -112683.21, -133487.50, -6555.05, -6453.98, -6689.36, -6449.31, -90028.48, -86543.34, -99419.62, -136575.45, 0.000, 0.000, 0.000, 03:55:06.761
125, -6826.94, -6997.08, -6943.99, -6901.35, -74390.07, -84056.17, -112682.09, -133499.91, -6555.05, -6453.98, -6689.36, -6449.31, -90028.48, -86543.34, -99419.62, -136575.45, 0.008, 0.946, 0.302, 03:55:06.765
126, -6826.94, -6997.08, -6943.99, -6901.35, -74390.07, -84056.17, -112682.09, -133499.91, -6547.81, -6451.32, -6690.88, -6452.14, -90024.45, -86546.76, -99423.69, -136578.25, 0.000, 0.000, 0.000, 03:55:06.768
127, -6845.38, -7000.70, -6947.23, -6896.14, -74415.91, -84044.99, -112683.01, -133487.75, -6547.81, -6451.32, -6690.88, -6452.14, -90024.45, -86546.76, -99423.69, -136578.25, 0.000, 0.000, 0.000, 03:55:06.772
128, -6845.38, -7000.70, -6947.23, -6896.14, -74415.91, -84044.99, -112683.01, -133487.75, -6555.77, -6453.22, -6688.78, -6448.03, -90029.16, -86543.20, -99418.39, -136574.34, 0.000, 0.000, 0.000, 03:55:06.778
129, -6826.49, -6997.59, -6944.62, -6900.45, -74391.70, -84052.59, -112680.57, -133498.88, -6555.77, -6453.22, -6688.78, -6448.03, -90029.16, -86543.20, -99418.39, -136574.34, 0.000, 0.000, 0.000, 03:55:06.781
130, -6826.49, -6997.59, -6944.62, -6900.45, -74391.70, -84052.59, -112680.57, -133498.88, -6542.29, -6447.92, -6688.96, -6450.83, -90020.24, -86547.38, -99422.84, -136577.38, 0.000, 0.000, 0.000, 03:55:06.785
131, -6842.23, -6999.76, -6946.05, -6895.92, -74412.95, -84042.11, -112681.17, -133487.83, -6542.29, -6447.92, -6688.96, -6450.83, -90020.24, -86547.38, -99422.84, -136577.38, 0.000, 0.000, 0.000, 03:55:06.790
132, -6842.23, -6999.76, -6946.05, -6895.92, -74412.95, -84042.11, -112681.17, -133487.83, -6556.12, -6452.23, -6687.91, -6446.73, -90029.43, -86542.30, -99417.23, -136573.00, 0.000, 0.000, 0.000, 03:55:06.793
133, -6824.05, -6994.35, -6940.98, -6896.70, -74391.07, -84048.93, -112676.66, -133494.25, -6556.12, -6452.23, -6687.91, -6446.73, -90029.43, -86542.30, -99417.23, -136573.00, 0.000, 0.000, 0.000, 03:55:06.797
134, -6824.05, -6994.35, -6940.98, -6896.70, -74391.07, -84048.93, -112676.66, -133494.25, -6537.06, -6444.72, -6685.85, -6449.01, -90015.52, -86546.04, -99420.27, -136575.02, 0.002, 0.946, 0.286, 03:55:06.800
135, -6839.32, -6998.67, -6945.96, -6896.21, -74410.95, -84046.87, -112680.55, -133488.30, -6537.06, -6444.72, -6685.85, -6449.01, -90015.52, -86546.04, -99420.27, -136575.02, 0.000, 0.000, 0.000, 03:55:06.805
136, -6839.32, -6998.67, -6945.96, -6896.21, -74410.95, -84046.87, -112680.55, -133488.30, -6557.02, -6453.44, -6688.13, -6446.82, -90030.25, -86541.64, -99416.82, -136572.50, 0.000, 0.000, 0.000, 03:55:06.810
137, -6827.70, -6995.81, -6942.32, -6897.64, -74396.55, -84053.66, -112678.20, -133494.11, -6557.02, -6453.44, -6688.13, -6446.82, -90030.25, -86541.64, -99416.82, -136572.50, 0.000, 0.000, 0.000, 03:55:06.813
138, -6827.70, -6995.81, -6942.32, -6897.64, -74396.55, -84053.66, -112678.20, -133494.11, -6538.60, -6448.41, -6688.56, -6452.34, -90017.18, -86549.48, -99423.06, -136577.83, 0.000, 0.000, 0.000, 03:55:06.817
139, -6837.60, -6998.80, -6946.21, -6897.01, -74409.83, -84050.23, -112680.52, -133489.69, -6538.60, -6448.41, -6688.56, -6452.34, -90017.18, -86549.48, -99423.06, -136577.83, 0.000, 0.000, 0.000, 03:55:06.820
140, -6837.60, -6998.80, -6946.21, -6897.01, -74409.83, -84050.23, -112680.52, -133489.69, -6557.24, -6453.80, -6687.04, -6445.15, -90029.90, -86540.05, -99415.05, -136570.56, 0.000, 0.000, 0.000, 03:55:06.825
141, -6829.37, -6995.81, -6942.05, -6895.94, -74400.75, -84050.91, -112676.68, -133491.56, -6557.24, -6453.80, -6687.04, -6445.15, -90029.90, -86540.05, -99415.05, -136570.56, 0.000, 0.000, 0.000, 03:55:06.829
142, -6829.37, -6995.81, -6942.05, -6895.94, -74400.75, -84050.91, -112676.68, -133491.56, -6537.64, -6448.79, -6688.87, -6452.79, -90017.47, -86551.07, -99423.44, -136578.50, 0.000, 0.000, 0.000, 03:55:06.832
143, -6837.78, -7001.08, -6948.44, -6900.12, -74410.43, -84052.91, -112682.34, -133493.67, -6537.64, -6448.79, -6688.87, -6452.79, -90017.47, -86551.07, -99423.44, -136578.50, 0.000, 0.000, 0.000, 03:55:06.837
144, -6837.78, -7001.08, -6948.44, -6900.12, -74410.43, -84052.91, -112682.34, -133493.67, -6564.68, -6457.42, -6691.84, -6449.66, -90035.13, -86545.35, -99419.41, -136574.92, 0.002, 0.942, 0.280, 03:55:06.842
145, -6837.69, -7001.19, -6945.60, -6899.51, -74410.74, -84053.73, -112680.57, -133493.55, -6564.68, -6457.42, -6691.84, -6449.66, -90035.13, -86545.35, -99419.41, -136574.92, 0.000, 0.000, 0.000, 03:55:06.844
146, -6837.69, -7001.19, -6945.60, -6899.51, -74410.74, -84053.73, -112680.57, -133493.55, -6539.52, -6449.62, -6689.77, -6453.82, -90018.97, -86553.13, -99423.93, -136579.17, 0.000, 0.000, 0.000, 03:55:06.848
147, -6836.10, -7001.68, -6948.44, -6901.55, -74408.84, -84055.21, -112682.12, -133495.92, -6539.52, -6449.62, -6689.77, -6453.82, -90018.97, -86553.13, -99423.93, -136579.17, 0.000, 0.000, 0.000, 03:55:06.853
148, -6836.10, -7001.68, -6948.44, -6901.55, -74408.84, -84055.21, -112682.12, -133495.92, -6564.57, -6457.84, -6692.36, -6450.33, -90035.41, -86546.31, -99419.88, -136575.44, 0.000, 0.000, 0.000, 03:55:06.856
149, -6840.59, -7002.29, -6947.19, -6899.31, -74416.45, -84053.62, -112681.11, -133492.91, -6564.57, -6457.84, -6692.36, -6450.33, -90035.41, -86546.31, -99419.88, -136575.44, 0.000, 0.000, 0.000, 03:55:06.861
150, -6840.59, -7002.29, -6947.19, -6899.31, -74416.45, -84053.62, -112681.11, -133492.91, -6541.44, -6449.91, -6689.34, -6453.28, -90019.19, -86552.61, -99422.61, -136578.41, 0.000, 0.000, 0.000, 03:55:06.866
151, -6832.97, -6999.78, -6945.54, -6900.45, -74406.01, -84056.41, -112680.15, -133496.42, -6541.44, -6449.91, -6689.34, -6453.28, -90019.19, -86552.61, -99422.61, -136578.41, 0.000, 0.000, 0.000, 03:55:06.869
152, -6832.97, -6999.78, -6945.54, -6900.45, -74406.01, -84056.41, -112680.15, -133496.42, -6564.62, -6458.47, -6693.43, -6451.14, -90035.73, -86547.56, -99420.66, -136575.97, 0.000, 0.000, 0.000, 03:55:06.872
153, -6846.38, -7005.04, -6949.02, -6901.19, -74423.62, -84056.05, -112683.41, -133494.27, -6564.62, -6458.47, -6693.43, -6451.14, -90035.73, -86547.56, -99420.66, -136575.97, 0.000, 0.000, 0.000, 03:55:06.877
154, -6846.38, -7005.04, -6949.02, -6901.19, -74423.62, -84056.05, -112683.41, -133494.27, -6544.23, -6451.41, -6690.52, -6453.75, -90021.16, -86554.13, -99423.10, -136578.92, 0.006, 0.936, 0.276, 03:55:06.880
155, -6829.28, -6997.93, -6944.40, -6899.63, -74403.23, -84057.02, -112678.27, -133496.45, -6544.23, -6451.41, -6690.52, -6453.75, -90021.16, -86554.13, -99423.10, -136578.92, 0.000, 0.000, 0.000, 03:55:06.886
156, -6829.28, -6997.93, -6944.40, -6899.63, -74403.23, -84057.02, -112678.27, -133496.45, -6559.66, -6453.10, -6689.45, -6447.58, -90030.81, -86544.97, -99417.09, -136572.39, 0.000, 0.000, 0.000, 03:55:06.890
157, -6845.02, -7001.48, -6944.60, -6896.23, -74423.98, -84050.94, -112678.54, -133488.09, -6559.66, -6453.10, -6689.45, -6447.58, -90030.81, -86544.97, -99417.09, -136572.39, 0.000, 0.000, 0.000, 03:55:06.893
158, -6845.02, -7001.48, -6944.60, -6896.23, -74423.98, -84050.94, -112678.54, -133488.09, -6544.93, -6448.93, -6688.11, -6450.76, -90020.58, -86551.59, -99419.77, -136575.80, 0.000, 0.000, 0.000, 03:55:06.897
159, -6828.19, -6998.46, -6944.37, -6900.48, -74402.54, -84057.55, -112677.80, -133497.94, -6544.93, -6448.93, -6688.11, -6450.76, -90020.58, -86551.59, -99419.77, -136575.80, 0.000, 0.000, 0.000, 03:55:06.900
160, -6828.19, -6998.46, -6944.37, -6900.48, -74402.54, -84057.55, -112677.80, -133497.94, -6558.07, -6453.02, -6690.52, -6449.13, -90030.30, -86547.23, -99418.79, -136573.98, 0.000, 0.000, 0.000, 03:55:06.904
161, -6847.43, -7003.00, -6946.94, -6896.88, -74429.12, -84050.49, -112679.59, -133488.70, -6558.07, -6453.02, -6690.52, -6449.13, -90030.30, -86547.23, -99418.79, -136573.98, 0.000, 0.000, 0.000, 03:55:06.908
162, -6847.43, -7003.00, -6946.94, -6896.88, -74429.12, -84050.49, -112679.59, -133488.70, -6548.95, -6452.61, -6689.88, -6451.67, -90024.17, -86552.27, -99420.27, -136576.55, 0.000, 0.000, 0.000, 03:55:06.912
163, -6827.94, -6998.46, -6943.90, -6900.54, -74403.34, -84059.70, -112677.38, -133498.53, -6548.95, -6452.61, -6689.88, -6451.67, -90024.17, -86552.27, -99420.27, -136576.55, 0.000, 0.000, 0.000, 03:55:06.917
164, -6827.94, -6998.46, -6943.90, -6900.54, -74403.34, -84059.70, -112677.38, -133498.53, -6553.98, -6452.41, -6688.69, -6447.72, -90027.08, -86545.77, -99417.54, -136572.33, 0.004, 0.926, 0.264, 03:55:06.921
165, -6845.58, -6999.60, -6944.66, -6893.32, -74428.65, -84049.71, -112676.08, -133483.42, -6553.98, -6452.41, -6688.69, -6447.72, -90027.08, -86545.77, -99417.54, -136572.33, 0.000, 0.000, 0.000, 03:55:06.925
166, -6845.58, -6999.60, -6944.66, -6893.32, -74428.65, -84049.71, -112676.08, -133483.42, -6547.25, -6449.37, -6684.53, -6445.68, -90021.09, -86545.44, -99414.05, -136570.34, 0.000, 0.000, 0.000, 03:55:06.929
167, -6822.20, -6993.06, -6939.08, -6895.00, -74399.57, -84057.06, -112671.59, -133492.48, -6547.25, -6449.37, -6684.53, -6445.68, -90021.09, -86545.44, -99414.05, -136570.34, 0.000, 0.000, 0.000, 03:55:06.934
168, -6822.20, -6993.06, -6939.08, -6895.00, -74399.57, -84057.06, -112671.59, -133492.48, -6548.95, -6448.32, -6685.83, -6445.35, -90022.74, -86544.05, -99415.10, -136569.80, 0.000, 0.000, 0.000, 03:55:06.937
169, -6846.63, -6999.96, -6944.06, -6892.90, -74431.26, -84049.22, -112675.90, -133482.94, -6548.95, -6448.32, -6685.83, -6445.35, -90022.74, -86544.05, -99415.10, -136569.80, 0.000, 0.000, 0.000, 03:55:06.942
170, -6846.63, -6999.96, -6944.06, -6892.90, -74431.26, -84049.22, -112675.90, -133482.94, -6553.35, -6451.27, -6687.53, -6447.43, -90026.12, -86547.59, -99415.73, -136571.81, 0.000, 0.000, 0.000, 03:55:06.944
171, -6826.85, -6997.21, -6943.23, -6899.11, -74405.45, -84059.61, -112675.23, -133496.64, -6553.35, -6451.27, -6687.53, -6447.43, -90026.12, -86547.59, -99415.73, -136571.81, 0.000, 0.000, 0.000, 03:55:06.949
172, -6826.85, -6997.21, -6943.23, -6899.11, -74405.45, -84059.61, -112675.23, -133496.64, -6550.20, -6450.51, -6689.81, -6449.86, -90024.82, -86549.77, -99419.66, -136574.42, 0.000, 0.000, 0.000, 03:55:06.953
173, -6849.04, -7002.82, -6947.23, -6895.31, -74435.40, -84050.98, -112677.87, -133485.75, -6550.20, -6450.51, -6689.81, -6449.86, -90024.82, -86549.77, -99419.66, -136574.42, 0.000, 0.000, 0.000, 03:55:06.958
174, -6849.04, -7002.82, -6947.23, -6895.31, -74435.40, -84050.98, -112677.87, -133485.75, -6556.39, -6453.60, -6688.18, -6446.96, -90029.02, -86547.05, -99415.30, -136571.19, 0.008, 0.936, 0.282, 03:55:06.960
175, -6828.44, -6997.77, -6943.46, -6898.53, -74409.36, -84060.93, -112675.07, -133495.83, -6556.39, -6453.60, -6688.18, -6446.96, -90029.02, -86547.05, -99415.30, -136571.19, 0.000, 0.000, 0.000, 03:55:06.964
176, -6828.44, -6997.77, -6943.46, -6898.53, -74409.36, -84060.93, -112675.07, -133495.83, -6549.55, -6450.71, -6690.39, -6451.07, -90023.80, -86551.02, -99420.71, -136575.30, 0.000, 0.000, 0.000, 03:55:06.970
177, -6849.69, -7003.20, -6947.95, -6896.88, -74436.49, -84055.74, -112679.07, -133485.95, -6549.55, -6450.71, -6690.39, -6451.07, -90023.80, -86551.02, -99420.71, -136575.30, 0.000, 0.000, 0.000, 03:55:06.974
178, -6849.69, -7003.20, -6947.95, -6896.88, -74436.49, -84055.74, -112679.07, -133485.95, -6560.77, -6454.04, -6688.94, -6447.03, -90031.48, -86546.22, -99414.77, -136570.52, 0.000, 0.000, 0.000, 03:55:06.977
179, -6829.75, -6997.35, -6941.83, -6897.17, -74412.13, -84060.84, -112673.69, -133493.00, -6560.77, -6454.04, -6688.94, -6447.03, -90031.48, -86546.22, -99414.77, -136570.52, 0.000, 0.000, 0.000, 03:55:06.980
180, -6829.75, -6997.35, -6941.83, -6897.17, -74412.13, -84060.84, -112673.69, -133493.00, -6544.21, -6446.31, -6687.24, -6448.57, -90019.39, -86549.59, -99417.78, -136572.47, 0.000, 0.000, 0.000, 03:55:06.984
181, -6843.48, -6998.89, -6944.60, -6893.17, -74431.95, -84051.25, -112674.56, -133483.36, -6544.21, -6446.31, -6687.24, -6448.57, -90019.39, -86549.59, -99417.78, -136572.47, 0.000, 0.000, 0.000, 03:55:06.988
182, -6843.48, -6998.89, -6944.60, -6893.17, -74431.95, -84051.25, -112674.56, -133483.36, -6561.02, -6451.92, -6686.77, -6443.67, -90030.37, -86543.76, -99411.75, -136567.56, 0.000, 0.000, 0.000, 03:55:06.993
183, -6830.16, -6996.27, -6940.31, -6895.16, -74414.68, -84056.66, -112671.66, -133490.97, -6561.02, -6451.92, -6686.77, -6443.67, -90030.37, -86543.76, -99411.75, -136567.56, 0.000, 0.000, 0.000, 03:55:06.996
184, -6830.16, -6996.27, -6940.31, -6895.16, -74414.68, -84056.66, -112671.66, -133490.97, -6540.50, -6444.95, -6685.14, -6446.65, -90016.24, -86548.84, -99415.59, -136570.30, 0.008, 0.938, 0.280, 03:55:07.000
185, -6838.38, -6996.25, -6941.02, -6890.24, -74427.59, -84049.44, -112670.52, -133481.63, -6540.50, -6444.95, -6685.14, -6446.65, -90016.24, -86548.84, -99415.59, -136570.30, 0.000, 0.000, 0.000, 03:55:07.005
186, -6838.38, -6996.25, -6941.02, -6890.24, -74427.59, -84049.44, -112670.52, -133481.63, -6558.38, -6449.37, -6682.72, -6439.45, -90027.44, -86539.38, -99406.85, -136562.73, 0.000, 0.000, 0.000, 03:55:07.007
187, -6830.09, -6994.31, -6939.32, -6892.23, -74418.01, -84056.86, -112669.38, -133486.41, -6558.38, -6449.37, -6682.72, -6439.45, -90027.44, -86539.38, -99406.85, -136562.73, 0.000, 0.000, 0.000, 03:55:07.014
188, -6830.09, -6994.31, -6939.32, -6892.23, -74418.01, -84056.86, -112669.38, -133486.41, -6538.67, -6444.50, -6684.36, -6446.49, -90014.88, -86549.35, -99414.77, -136569.91, 0.000, 0.000, 0.000, 03:55:07.017
189, -6837.33, -6996.16, -6941.33, -6892.05, -74426.59, -84055.92, -112671.20, -133482.44, -6538.67, -6444.50, -6684.36, -6446.49, -90014.88, -86549.35, -99414.77, -136569.91, 0.000, 0.000, 0.000, 03:55:07.021
190, -6837.33, -6996.16, -6941.33, -6892.05, -74426.59, -84055.92, -112671.20, -133482.44, -6561.09, -6450.94, -6684.22, -6440.61, -90029.54, -86541.10, -99407.77, -136563.34, 0.000, 0.000, 0.000, 03:55:07.024
191, -6834.18, -6995.47, -6938.99, -6891.49, -74423.46, -84057.29, -112669.17, -133483.00, -6561.09, -6450.94, -6684.22, -6440.61, -90029.54, -86541.10, -99407.77, -136563.34, 0.000, 0.000, 0.000, 03:55:07.029
192, -6834.18, -6995.47, -6938.99, -6891.49, -74423.46, -84057.29, -112669.17, -133483.00, -6540.43, -6444.59, -6684.83, -6447.05, -90015.30, -86550.94, -99414.56, -136569.98, 0.000, 0.000, 0.000, 03:55:07.033
193, -6835.72, -6996.19, -6940.60, -6892.76, -74425.12, -84055.45, -112670.52, -133483.47, -6540.43, -6444.59, -6684.83, -6447.05, -90015.30, -86550.94, -99414.56, -136569.98, 0.000, 0.000, 0.000, 03:55:07.036
194, -6835.72, -6996.19, -6940.60, -6892.76, -74425.12, -84055.45, -112670.52, -133483.47, -6560.26, -6449.35, -6683.80, -6439.54, -90028.78, -86540.63, -99406.72, -136562.25, 0.008, 0.944, 0.304, 03:55:07.042
195, -6836.84, -6996.12, -6938.52, -6890.42, -74428.34, -84051.70, -112667.88, -133481.58, -6560.26, -6449.35, -6683.80, -6439.54, -90028.78, -86540.63, -99406.72, -136562.25, 0.000, 0.000, 0.000, 03:55:07.045
196, -6836.84, -6996.12, -6938.52, -6890.42, -74428.34, -84051.70, -112667.88, -133481.58, -6538.98, -6444.57, -6683.08, -6445.21, -90014.56, -86550.00, -99412.33, -136567.88, 0.000, 0.000, 0.000, 03:55:07.049
197, -6831.39, -6995.38, -6940.82, -6892.05, -74422.66, -84053.91, -112668.52, -133485.06, -6538.98, -6444.57, -6683.08, -6445.21, -90014.56, -86550.00, -99412.33, -136567.88, 0.000, 0.000, 0.000, 03:55:07.052
198, -6831.39, -6995.38, -6940.82, -6892.05, -74422.66, -84053.91, -112668.52, -133485.06, -6562.14, -6452.66, -6685.27, -6441.48, -90030.21, -86542.40, -99408.27, -136563.75, 0.000, 0.000, 0.000, 03:55:07.057
199, -6843.72, -6999.98, -6942.68, -6893.68, -74437.54, -84057.09, -112671.98, -133484.44, -6562.14, -6452.66, -6685.27, -6441.48, -90030.21, -86542.40, -99408.27, -136563.75, 0.000, 0.000, 0.000, 03:55:07.060
200, -6843.72, -6999.98, -6942.68, -6893.68, -74437.54, -84057.09, -112671.98, -133484.44, -6546.16, -6452.50, -6689.07, -6450.74, -90021.09, -86554.69, -99417.34, -136572.95, 0.000, 0.000, 0.000, 03:55:07.063
201, -6835.21, -6999.58, -6944.37, -6898.02, -74426.16, -84064.88, -112673.48, -133491.55, -6546.16, -6452.50, -6689.07, -6450.74, -90021.09, -86554.69, -99417.34, -136572.95, 0.000, 0.000, 0.000, 03:55:07.068
202, -6835.21, -6999.58, -6944.37, -6898.02, -74426.16, -84064.88, -112673.48, -133491.55, -6562.34, -6454.89, -6686.73, -6443.16, -90030.66, -86544.05, -99409.65, -136564.80, 0.000, 0.000, 0.000, 03:55:07.071
203, -6844.01, -6998.31, -6942.41, -6891.31, -74440.76, -84056.41, -112670.27, -133480.44, -6562.34, -6454.89, -6686.73, -6443.16, -90030.66, -86544.05, -99409.65, -136564.80, 0.006, 0.942, 0.300, 03:55:07.076
204, -6844.01, -6998.31, -6942.41, -6891.31, -74440.76, -84056.41, -112670.27, -133480.44, -6546.51, -6450.87, -6686.61, -6447.96, -90020.13, -86552.50, -99413.74, -136569.91, 0.000, 0.000, 0.000, 03:55:07.081
205, -6831.88, -6997.33, -6942.03, -6896.52, -74423.46, -84063.57, -112671.07, -133490.45, -6546.51, -6450.87, -6686.61, -6447.96, -90020.13, -86552.50, -99413.74, -136569.91, 0.000, 0.000, 0.000, 03:55:07.084
206, -6831.88, -6997.33, -6942.03, -6896.52, -74423.46, -84063.57, -112671.07, -133490.45, -6562.20, -6453.95, -6688.71, -6444.92, -90030.97, -86547.29, -99411.55, -136566.63, 0.000, 0.000, 0.000, 03:55:07.088
207, -6851.01, -7003.16, -6945.25, -6894.48, -74448.96, -84057.22, -112673.35, -133482.44, -6562.20, -6453.95, -6688.71, -6444.92, -90030.97, -86547.29, -99411.55, -136566.63, 0.000, 0.000, 0.000, 03:55:07.091
208, -6851.01, -7003.16, -6945.25, -6894.48, -74448.96, -84057.22, -112673.35, -133482.44, -6550.80, -6451.43, -6687.98, -6448.39, -90023.44, -86554.38, -99413.83, -136570.06, 0.000, 0.000, 0.000, 03:55:07.095
209, -6832.91, -7000.75, -6945.60, -6899.56, -74426.57, -84066.18, -112673.04, -133493.22, -6550.80, -6451.43, -6687.98, -6448.39, -90023.44, -86554.38, -99413.83, -136570.06, 0.000, 0.000, 0.000, 03:55:07.100
210, -6832.91, -7000.75, -6945.60, -6899.56, -74426.57, -84066.18, -112673.04, -133493.22, -6564.66, -6457.42, -6693.68, -6451.00, -90034.70, -86554.49, -99417.02, -136572.08, 0.000, 0.000, 0.000, 03:55:07.105
211, -6856.35, -7007.61, -6950.25, -6898.84, -74456.45, -84063.05, -112677.77, -133484.91, -6564.66, -6457.42, -6693.68, -6451.00, -90034.70, -86554.49, -99417.02, -136572.08, 0.000, 0.000, 0.000, 03:55:07.109
212, -6856.35, -7007.61, -6950.25, -6898.84, -74456.45, -84063.05, -112677.77, -133484.91, -6558.69, -6456.66, -6693.36, -6453.22, -90030.07, -86558.58, -99417.90, -136574.11, 0.000, 0.000, 0.000, 03:55:07.111
213, -6836.01, -7002.96, -6946.92, -6902.64, -74429.83, -84073.58, -112675.50, -133495.36, -6558.69, -6456.66, -6693.36, -6453.22, -90030.07, -86558.58, -99417.90, -136574.11, 0.018, 0.952, 0.304, 03:55:07.115
214, -6836.01, -7002.96, -6946.92, -6902.64, -74429.83, -84073.58, -112675.50, -133495.36, -6562.02, -6456.55, -6693.10, -6451.25, -90031.93, -86554.87, -99416.71, -136571.55, 0.000, 0.000, 0.000, 03:55:07.120
215, -6855.73, -7006.18, -6949.38, -6897.19, -74457.48, -84063.25, -112676.13, -133482.44, -6562.02, -6456.55, -6693.10, -6451.25, -90031.93, -86554.87, -99416.71, -136571.55, 0.000, 0.000, 0.000, 03:55:07.123
216, -6855.73, -7006.18, -6949.38, -6897.19, -74457.48, -84063.25, -112676.13, -133482.44, -6557.96, -6455.68, -6690.08, -6449.42, -90029.11, -86554.87, -99413.70, -136570.05, 0.000, 0.000, 0.000, 03:55:07.128
217, -6831.21, -6998.55, -6943.12, -6898.75, -74426.52, -84068.93, -112670.76, -133491.94, -6557.96, -6455.68, -6690.08, -6449.42, -90029.11, -86554.87, -99413.70, -136570.05, 0.000, 0.000, 0.000, 03:55:07.133
218, -6831.21, -6998.55, -6943.12, -6898.75, -74426.52, -84068.93, -112670.76, -133491.94, -6556.41, -6453.28, -6690.50, -6448.99, -90027.05, -86553.41, -99414.68, -136569.42, 0.000, 0.000, 0.000, 03:55:07.136
219, -6854.99, -7005.26, -6947.17, -6895.71, -74457.26, -84060.13, -112674.00, -133481.44, -6556.41, -6453.28, -6690.50, -6448.99, -90027.05, -86553.41, -99414.68, -136569.42, 0.000, 0.000, 0.000, 03:55:07.140
220, -6854.99, -7005.26, -6947.17, -6895.71, -74457.26, -84060.13, -112674.00, -133481.44, -6560.55, -6455.79, -6689.09, -6447.34, -90029.85, -86552.63, -99411.23, -136567.48, 0.000, 0.000, 0.000, 03:55:07.144
221, -6831.45, -6998.67, -6942.61, -6897.50, -74428.71, -84067.21, -112669.35, -133491.70, -6560.55, -6455.79, -6689.09, -6447.34, -90029.85, -86552.63, -99411.23, -136567.48, 0.000, 0.000, 0.000, 03:55:07.147
222, -6831.45, -6998.67, -6942.61, -6897.50, -74428.71, -84067.21, -112669.35, -133491.70, -6551.50, -6452.64, -6688.89, -6448.61, -90024.11, -86553.75, -99413.88, -136568.66, 0.000, 0.000, 0.000, 03:55:07.152
223, -6851.93, -7003.29, -6947.26, -6894.82, -74455.94, -84060.55, -112672.57, -133480.56, -6551.50, -6452.64, -6688.89, -6448.61, -90024.11, -86553.75, -99413.88, -136568.66, 0.028, 0.962, 0.308, 03:55:07.156
224, -6851.93, -7003.29, -6947.26, -6894.82, -74455.94, -84060.55, -112672.57, -133480.56, -6563.92, -6459.27, -6690.48, -6447.94, -90032.47, -86552.41, -99411.64, -136567.64, 0.000, 0.000, 0.000, 03:55:07.162
225, -6836.01, -7002.35, -6946.21, -6900.83, -74435.11, -84073.65, -112672.55, -133492.69, -6563.92, -6459.27, -6690.48, -6447.94, -90032.47, -86552.41, -99411.64, -136567.64, 0.000, 0.000, 0.000, 03:55:07.167
226, -6836.01, -7002.35, -6946.21, -6900.83, -74435.11, -84073.65, -112672.55, -133492.69, -6553.06, -6456.84, -6692.98, -6453.42, -90026.09, -86558.31, -99418.27, -136572.70, 0.000, 0.000, 0.000, 03:55:07.170
227, -6851.52, -7003.85, -6947.82, -6896.16, -74456.45, -84064.93, -112673.24, -133480.39, -6553.06, -6456.84, -6692.98, -6453.42, -90026.09, -86558.31, -99418.27, -136572.70, 0.000, 0.000, 0.000, 03:55:07.173
228, -6851.52, -7003.85, -6947.82, -6896.16, -74456.45, -84064.93, -112673.24, -133480.39, -6564.13, -6458.07, -6689.32, -6446.40, -90032.35, -86550.40, -99409.58, -136565.47, 0.000, 0.000, 0.000, 03:55:07.177
229, -6834.52, -6999.18, -6944.02, -6897.88, -74435.77, -84070.88, -112669.69, -133487.30, -6564.13, -6458.07, -6689.32, -6446.40, -90032.35, -86550.40, -99409.58, -136565.47, 0.000, 0.000, 0.000, 03:55:07.180
230, -6834.52, -6999.18, -6944.02, -6897.88, -74435.77, -84070.88, -112669.69, -133487.30, -6547.03, -6451.38, -6689.52, -6450.65, -90020.98, -86556.91, -99414.90, -136569.59, 0.000, 0.000, 0.000, 03:55:07.184
231, -6849.49, -7004.14, -6948.15, -6896.59, -74455.45, -84065.35, -112672.57, -133480.41, -6547.03, -6451.38, -6689.52, -6450.65, -90020.98, -86556.91, -99414.90, -136569.59, 0.000, 0.000, 0.000, 03:55:07.188
232, -6849.49, -7004.14, -6948.15, -6896.59, -74455.45, -84065.35, -112672.57, -133480.41, -6568.80, -6459.36, -6692.13, -6448.61, -90036.45, -86553.48, -99411.62, -136567.14, 0.000, 0.000, 0.000, 03:55:07.192
233, -6839.70, -7003.47, -6947.28, -6900.07, -74443.53, -84072.15, -112672.21, -133488.55, -6568.80, -6459.36, -6692.13, -6448.61, -90036.45, -86553.48, -99411.62, -136567.14, 0.014, 0.952, 0.308, 03:55:07.196
234, -6839.70, -7003.47, -6947.28, -6900.07, -74443.53, -84072.15, -112672.21, -133488.55, -6548.50, -6450.94, -6690.93, -6452.37, -90021.31, -86559.88, -99416.22, -136570.97, 0.000, 0.000, 0.000, 03:55:07.200
235, -6844.24, -7001.28, -6945.49, -6894.80, -74450.51, -84063.66, -112669.53, -133479.55, -6548.50, -6450.94, -6690.93, -6452.37, -90021.31, -86559.88, -99416.22, -136570.97, 0.000, 0.000, 0.000, 03:55:07.203
236, -6844.24, -7001.28, -6945.49, -6894.80, -74450.51, -84063.66, -112669.53, -133479.55, -6564.28, -6453.08, -6686.41, -6442.33, -90031.21, -86547.56, -99405.13, -136560.30, 0.000, 0.000, 0.000, 03:55:07.208
237, -6835.79, -6997.50, -6940.06, -6892.41, -74441.41, -84064.10, -112664.81, -133480.88, -6564.28, -6453.08, -6686.41, -6442.33, -90031.21, -86547.56, -99405.13, -136560.30, 0.000, 0.000, 0.000, 03:55:07.212
238, -6835.79, -6997.50, -6940.06, -6892.41, -74441.41, -84064.10, -112664.81, -133480.88, -6543.74, -6447.52, -6686.77, -6448.54, -90016.82, -86556.45, -99411.99, -136566.69, 0.000, 0.000, 0.000, 03:55:07.216
239, -6841.67, -6999.98, -6944.24, -6895.09, -74448.25, -84065.09, -112668.95, -133482.58, -6543.74, -6447.52, -6686.77, -6448.54, -90016.82, -86556.45, -99411.99, -136566.69, 0.000, 0.000, 0.000, 03:55:07.220
240, -6841.67, -6999.98, -6944.24, -6895.09, -74448.25, -84065.09, -112668.95, -133482.58, -6567.08, -6455.76, -6688.13, -6443.83, -90032.51, -86548.27, -99406.45, -136561.63, 0.000, 0.000, 0.000, 03:55:07.223
241, -6843.01, -7001.04, -6943.08, -6895.71, -74449.95, -84067.05, -112668.61, -133484.02, -6567.08, -6455.76, -6688.13, -6443.83, -90032.51, -86548.27, -99406.45, -136561.63, 0.000, 0.000, 0.000, 03:55:07.229
242, -6843.01, -7001.04, -6943.08, -6895.71, -74449.95, -84067.05, -112668.61, -133484.02, -6550.27, -6456.12, -6692.78, -6454.71, -90023.03, -86562.42, -99417.41, -136572.27, 0.000, 0.000, 0.000, 03:55:07.231
243, -6845.71, -7006.62, -6950.14, -6901.70, -74452.59, -84072.64, -112674.05, -133490.31, -6550.27, -6456.12, -6692.78, -6454.71, -90023.03, -86562.42, -99417.41, -136572.27, 0.020, 0.944, 0.308, 03:55:07.236
244, -6845.71, -7006.62, -6950.14, -6901.70, -74452.59, -84072.64, -112674.05, -133490.31, -6572.91, -6463.23, -6694.28, -6450.29, -90038.48, -86554.58, -99412.33, -136567.34, 0.000, 0.000, 0.000, 03:55:07.240
245, -6850.38, -7006.74, -6949.00, -6899.87, -74460.41, -84070.77, -112673.51, -133487.25, -6572.91, -6463.23, -6694.28, -6450.29, -90038.48, -86554.58, -99412.33, -136567.34, 0.000, 0.000, 0.000, 03:55:07.244
246, -6850.38, -7006.74, -6949.00, -6899.87, -74460.41, -84070.77, -112673.51, -133487.25, -6550.16, -6455.38, -6692.36, -6454.11, -90022.63, -86562.02, -99416.22, -136571.48, 0.000, 0.000, 0.000, 03:55:07.248
247, -6839.21, -7001.88, -6945.96, -6898.75, -74446.80, -84071.63, -112670.05, -133487.09, -6550.16, -6455.38, -6692.36, -6454.11, -90022.63, -86562.02, -99416.22, -136571.48, 0.000, 0.000, 0.000, 03:55:07.252
248, -6839.21, -7001.88, -6945.96, -6898.75, -74446.80, -84071.63, -112670.05, -133487.09, -6567.99, -6458.69, -6690.97, -6446.94, -90034.03, -86552.08, -99409.05, -136563.75, 0.000, 0.000, 0.000, 03:55:07.256
249, -6849.11, -7004.01, -6946.30, -6895.74, -74461.93, -84068.80, -112669.55, -133479.94, -6567.99, -6458.69, -6690.97, -6446.94, -90034.03, -86552.08, -99409.05, -136563.75, 0.000, 0.000, 0.000, 03:55:07.259
250, -6849.11, -7004.01, -6946.30, -6895.74, -74461.93, -84068.80, -112669.55, -133479.94, -6548.46, -6453.35, -6689.56, -6450.94, -90020.93, -86559.95, -99412.69, -136567.97, 0.000, 0.000, 0.000, 03:55:07.264
251, -6833.64, -6998.93, -6944.33, -6897.08, -74443.33, -84073.38, -112667.25, -133484.28, -6548.46, -6453.35, -6689.56, -6450.94, -90020.93, -86559.95, -99412.69, -136567.97, 0.000, 0.000, 0.000, 03:55:07.268
252, -6833.64, -6998.93, -6944.33, -6897.08, -74443.33, -84073.38, -112667.25, -133484.28, -6562.25, -6454.74, -6688.22, -6444.57, -90029.70, -86550.60, -99406.74, -136561.33, 0.000, 0.000, 0.000, 03:55:07.271
253, -6848.80, -7001.77, -6944.62, -6892.99, -74463.78, -84067.44, -112667.07, -133474.16, -6562.25, -6454.74, -6688.22, -6444.57, -90029.70, -86550.60, -99406.74, -136561.33, 0.018, 0.944, 0.306, 03:55:07.276
254, -6848.80, -7001.77, -6944.62, -6892.99, -74463.78, -84067.44, -112667.07, -133474.16, -6551.07, -6452.97, -6689.36, -6450.47, -90022.63, -86559.81, -99411.64, -136566.83, 0.000, 0.000, 0.000, 03:55:07.278
255, -6836.97, -7003.29, -6947.30, -6900.92, -74446.64, -84078.52, -112669.95, -133487.47, -6551.07, -6452.97, -6689.36, -6450.47, -90022.63, -86559.81, -99411.64, -136566.83, 0.000, 0.000, 0.000, 03:55:07.284
0, -6836.97, -7003.29, -6947.30, -6900.92, -74446.64, -84078.52, -112669.95, -133487.47, -6567.12, -6458.04, -6693.88, -6450.74, -90034.05, -86558.05, -99412.64, -136567.02, 0.000, 0.000, 0.000, 03:55:07.288
1, -6854.72, -7006.51, -6948.78, -6896.72, -74471.49, -84069.34, -112670.87, -133477.73, -6567.12, -6458.04, -6693.88, -6450.74, -90034.05, -86558.05, -99412.64, -136567.02, 0.000, 0.000, 0.000, 03:55:07.292
2, -6854.72, -7006.51, -6948.78, -6896.72, -74471.49, -84069.34, -112670.87, -133477.73, -6553.17, -6453.28, -6689.54, -6449.75, -90024.28, -86559.92, -99410.74, -136566.38, 0.000, 0.000, 0.000, 03:55:07.296
3, -6832.46, -7000.01, -6944.53, -6898.62, -74443.64, -84075.44, -112666.60, -133487.00, -6553.17, -6453.28, -6689.54, -6449.75, -90024.28, -86559.92, -99410.74, -136566.38, 0.000, 0.000, 0.000, 03:55:07.300
4, -6832.46, -7000.01, -6944.53, -6898.62, -74443.64, -84075.44, -112666.60, -133487.00, -6561.13, -6455.92, -6690.73, -6448.37, -90029.38, -86555.98, -99410.38, -136564.48, 0.000, 0.000, 0.000, 03:55:07.303
5, -6854.25, -7005.10, -6947.79, -6894.86, -74472.48, -84068.20, -112668.81, -133476.09, -6561.13, -6455.92, -6690.73, -6448.37, -90029.38, -86555.98, -99410.38, -136564.48, 0.000, 0.000, 0.000, 03:55:07.307
6, -6854.25, -7005.10, -6947.79, -6894.86, -74472.48, -84068.20, -112668.81, -133476.09, -6559.39, -6458.83, -6691.69, -6451.18, -90028.33, -86560.08, -99411.68, -136567.14, 0.012, 0.936, 0.304, 03:55:07.310
7, -6835.88, -7003.20, -6947.70, -6902.38, -74447.96, -84081.20, -112669.91, -133491.86, -6559.39, -6458.83, -6691.69, -6451.18, -90028.33, -86560.08, -99411.68, -136567.14, 0.000, 0.000, 0.000, 03:55:07.316
8, -6835.88, -7003.20, -6947.70, -6902.38, -74447.96, -84081.20, -112669.91, -133491.86, -6560.48, -6459.70, -6693.77, -6452.01, -90030.03, -86559.48, -99413.76, -136567.92, 0.000, 0.000, 0.000, 03:55:07.320
9, -6855.21, -7005.62, -6948.49, -6895.65, -74475.07, -84069.69, -112669.41, -133477.45, -6560.48, -6459.70, -6693.77, -6452.01, -90030.03, -86559.48, -99413.76, -136567.92, 0.000, 0.000, 0.000, 03:55:07.324
10, -6855.21, -7005.62, -6948.49, -6895.65, -74475.07, -84069.69, -112669.41, -133477.45, -6559.66, -6458.09, -6689.16, -6447.81, -90027.70, -86556.55, -99407.79, -136563.39, 0.000, 0.000, 0.000, 03:55:07.327
11, -6833.49, -7000.66, -6944.11, -6899.02, -74447.02, -84078.56, -112666.31, -133487.94, -6559.66, -6458.09, -6689.16, -6447.81, -90027.70, -86556.55, -99407.79, -136563.39, 0.000, 0.000, 0.000, 03:55:07.331
12, -6833.49, -7000.66, -6944.11, -6899.02, -74447.02, -84078.56, -112666.31, -133487.94, -6554.81, -6454.85, -6689.68, -6448.52, -90024.15, -86557.04, -99410.01, -136564.22, 0.000, 0.000, 0.000, 03:55:07.335
13, -6851.35, -7001.42, -6943.14, -6891.76, -74471.52, -84065.87, -112665.10, -133472.55, -6554.81, -6454.85, -6689.68, -6448.52, -90024.15, -86557.04, -99410.01, -136564.22, 0.000, 0.000, 0.000, 03:55:07.339
14, -6851.35, -7001.42, -6943.14, -6891.76, -74471.52, -84065.87, -112665.10, -133472.55, -6560.62, -6455.76, -6687.49, -6444.88, -90027.46, -86554.22, -99404.91, -136560.55, 0.000, 0.000, 0.000, 03:55:07.344
15, -6831.85, -6998.11, -6941.02, -6896.09, -74447.06, -84075.50, -112662.91, -133483.55, -6560.62, -6455.76, -6687.49, -6444.88, -90027.46, -86554.22, -99404.91, -136560.55, 0.000, 0.000, 0.000, 03:55:07.348
16, -6831.85, -6998.11, -6941.02, -6896.09, -74447.06, -84075.50, -112662.91, -133483.55, -6549.78, -6449.93, -6686.86, -6446.35, -90019.68, -86556.70, -99407.52, -136561.89, 0.006, 0.938, 0.290, 03:55:07.352
17, -6847.43, -6999.45, -6942.41, -6889.70, -74469.41, -84064.80, -112662.17, -133469.84, -6549.78, -6449.93, -6686.86, -6446.35, -90019.68, -86556.70, -99407.52, -136561.89, 0.000, 0.000, 0.000, 03:55:07.355
18, -6847.43, -6999.45, -6942.41, -6889.70, -74469.41, -84064.80, -112662.17, -133469.84, -6560.15, -6451.43, -6684.51, -6441.66, -90026.50, -86551.49, -99401.02, -136556.70, 0.000, 0.000, 0.000, 03:55:07.359
19, -6829.37, -6994.64, -6937.62, -6892.38, -74446.75, -84072.71, -112659.05, -133479.19, -6560.15, -6451.43, -6684.51, -6441.66, -90026.50, -86551.49, -99401.02, -136556.70, 0.000, 0.000, 0.000, 03:55:07.363
20, -6829.37, -6994.64, -6937.62, -6892.38, -74446.75, -84072.71, -112659.05, -133479.19, -6545.10, -6445.46, -6684.76, -6445.44, -90016.10, -86556.70, -99406.05, -136560.44, 0.000, 0.000, 0.000, 03:55:07.367
21, -6848.02, -7000.99, -6943.61, -6892.05, -74470.55, -84069.06, -112663.59, -133472.63, -6545.10, -6445.46, -6684.76, -6445.44, -90016.10, -86556.70, -99406.05, -136560.44, 0.000, 0.000, 0.000, 03:55:07.372
22, -6848.02, -7000.99, -6943.61, -6892.05, -74470.55, -84069.06, -112663.59, -133472.63, -6566.47, -6455.50, -6687.95, -6444.68, -90031.39, -86554.52, -99403.70, -136559.19, 0.000, 0.000, 0.000, 03:55:07.376
23, -6836.42, -7000.30, -6942.59, -6895.96, -74455.87, -84077.27, -112663.00, -133482.17, -6566.47, -6455.50, -6687.95, -6444.68, -90031.39, -86554.52, -99403.70, -136559.19, 0.000, 0.000, 0.000, 03:55:07.380
24, -6836.42, -7000.30, -6942.59, -6895.96, -74455.87, -84077.27, -112663.00, -133482.17, -6545.82, -6449.31, -6687.35, -6448.48, -90018.02, -86560.48, -99408.93, -136563.36, 0.000, 0.000, 0.000, 03:55:07.383
25, -6843.32, -6998.60, -6942.09, -6891.13, -74466.98, -84068.51, -112661.64, -133472.92, -6545.82, -6449.31, -6687.35, -6448.48, -90018.02, -86560.48, -99408.93, -136563.36, 0.000, 0.000, 0.000, 03:55:07.387
26, -6843.32, -6998.60, -6942.09, -6891.13, -74466.98, -84068.51, -112661.64, -133472.92, -6564.19, -6453.95, -6685.25, -6440.97, -90029.18, -86550.76, -99400.46, -136555.78, 0.008, 0.948, 0.304, 03:55:07.391
27, -6838.07, -6999.60, -6941.78, -6894.75, -74460.25, -84075.97, -112662.29, -133480.17, -6564.19, -6453.95, -6685.25, -6440.97, -90029.18, -86550.76, -99400.46, -136555.78, 0.000, 0.000, 0.000, 03:55:07.395
28, -6838.07, -6999.60, -6941.78, -6894.75, -74460.25, -84075.97, -112662.29, -133480.17, -6548.39, -6453.33, -6690.30, -6451.43, -90020.24, -86564.15, -99411.81, -136566.36, 0.000, 0.000, 0.000, 03:55:07.400
29, -6847.39, -7004.32, -6947.68, -6897.50, -74471.20, -84077.07, -112666.83, -133479.94, -6548.39, -6453.33, -6690.30, -6451.43, -90020.24, -86564.15, -99411.81, -136566.36, 0.000, 0.000, 0.000, 03:55:07.404
30, -6847.39, -7004.32, -6947.68, -6897.50, -74471.20, -84077.07, -112666.83, -133479.94, -6571.37, -6462.40, -6692.58, -6447.94, -90036.91, -86557.84, -99407.57, -136562.66, 0.000, 0.000, 0.000, 03:55:07.407
31, -6844.86, -7004.57, -6947.93, -6899.27, -74469.69, -84081.05, -112666.87, -133482.63, -6571.37, -6462.40, -6692.58, -6447.94, -90036.91, -86557.84, -99407.57, -136562.66, 0.000, 0.000, 0.000, 03:55:07.411
32, -6844.86, -7004.57, -6947.93, -6899.27, -74469.69, -84081.05, -112666.87, -133482.63, -6546.85, -6454.33, -6690.03, -6451.54, -90019.81, -86564.50, -99411.46, -136566.31, 0.000, 0.000, 0.000, 03:55:07.416
33, -6840.10, -6999.74, -6944.28, -6894.13, -74465.55, -84076.02, -112662.49, -133476.28, -6546.85, -6454.33, -6690.03, -6451.54, -90019.81, -86564.50, -99411.46, -136566.31, 0.000, 0.000, 0.000, 03:55:07.419
34, -6840.10, -6999.74, -6944.28, -6894.13, -74465.55, -84076.02, -112662.49, -133476.28, -6566.41, -6457.84, -6687.44, -6443.11, -90032.16, -86552.81, -99402.43, -136557.11, 0.000, 0.000, 0.000, 03:55:07.423
35, -6843.63, -7000.72, -6943.26, -6893.37, -74470.55, -84076.40, -112661.57, -133474.08, -6566.41, -6457.84, -6687.44, -6443.11, -90032.16, -86552.81, -99402.43, -136557.11, 0.000, 0.000, 0.000, 03:55:07.427
36, -6843.63, -7000.72, -6943.26, -6893.37, -74470.55, -84076.40, -112661.57, -133474.08, -6547.38, -6452.59, -6688.33, -6450.04, -90018.79, -86563.52, -99409.60, -136564.34, 0.004, 0.942, 0.286, 03:55:07.432
37, -6841.04, -7002.40, -6946.61, -6897.95, -74466.38, -84080.66, -112665.04, -133479.56, -6547.38, -6452.59, -6688.33, -6450.04, -90018.79, -86563.52, -99409.60, -136564.34, 0.000, 0.000, 0.000, 03:55:07.435
38, -6841.04, -7002.40, -6946.61, -6897.95, -74466.38, -84080.66, -112665.04, -133479.56, -6569.24, -6458.83, -6690.37, -6445.75, -90034.43, -86556.88, -99405.22, -136559.94, 0.000, 0.000, 0.000, 03:55:07.439
39, -6847.48, -7002.31, -6944.37, -6893.57, -74476.91, -84075.15, -112662.58, -133473.73, -6569.24, -6458.83, -6690.37, -6445.75, -90034.43, -86556.88, -99405.22, -136559.94, 0.000, 0.000, 0.000, 03:55:07.443
40, -6847.48, -7002.31, -6944.37, -6893.57, -74476.91, -84075.15, -112662.58, -133473.73, -6548.37, -6451.52, -6688.38, -6449.39, -90020.17, -86564.50, -99408.80, -136563.97, 0.000, 0.000, 0.000, 03:55:07.448
41, -6838.74, -7001.53, -6945.65, -6897.93, -74464.68, -84081.05, -112663.65, -133481.42, -6548.37, -6451.52, -6688.38, -6449.39, -90020.17, -86564.50, -99408.80, -136563.97, 0.000, 0.000, 0.000, 03:55:07.451
42, -6838.74, -7001.53, -6945.65, -6897.93, -74464.68, -84081.05, -112663.65, -133481.42, -6568.44, -6456.77, -6690.52, -6445.73, -90033.12, -86557.73, -99405.42, -136560.02, 0.000, 0.000, 0.000, 03:55:07.456
43, -6850.12, -7002.53, -6943.90, -6893.39, -74480.95, -84074.32, -112662.29, -133472.92, -6568.44, -6456.77, -6690.52, -6445.73, -90033.12, -86557.73, -99405.42, -136560.02, 0.000, 0.000, 0.000, 03:55:07.461
44, -6850.12, -7002.53, -6943.90, -6893.39, -74480.95, -84074.32, -112662.29, -133472.92, -6550.11, -6452.05, -6688.51, -6448.97, -90021.58, -86564.34, -99407.79, -136563.23, 0.000, 0.000, 0.000, 03:55:07.465
45, -6836.62, -7001.19, -6945.45, -6898.24, -74463.88, -84083.35, -112662.98, -133483.11, -6550.11, -6452.05, -6688.51, -6448.97, -90021.58, -86564.34, -99407.79, -136563.23, 0.000, 0.000, 0.000, 03:55:07.469
46, -6836.62, -7001.19, -6945.45, -6898.24, -74463.88, -84083.35, -112662.98, -133483.11, -6567.50, -6458.04, -6691.44, -6447.52, -90033.25, -86559.95, -99406.85, -136561.36, 0.006, 0.938, 0.278, 03:55:07.471
47, -6854.14, -7005.08, -6947.23, -6894.78, -74487.50, -84077.31, -112664.39, -133473.89, -6567.50, -6458.04, -6691.44, -6447.52, -90033.25, -86559.95, -99406.85, -136561.36, 0.000, 0.000, 0.000, 03:55:07.476
48, -6854.14, -7005.08, -6947.23, -6894.78, -74487.50, -84077.31, -112664.39, -133473.89, -6555.14, -6455.83, -6690.39, -6450.38, -90024.98, -86565.45, -99408.77, -136564.34, 0.000, 0.000, 0.000, 03:55:07.479
49, -6836.57, -7001.66, -6945.00, -6899.54, -74464.12, -84085.88, -112663.63, -133484.59, -6555.14, -6455.83, -6690.39, -6450.38, -90024.98, -86565.45, -99408.77, -136564.34, 0.000, 0.000, 0.000, 03:55:07.483
50, -6836.57, -7001.66, -6945.00, -6899.54, -74464.12, -84085.88, -112663.63, -133484.59, -6565.24, -6458.04, -6691.22, -6447.74, -90031.26, -86560.73, -99407.15, -136561.67, 0.000, 0.000, 0.000, 03:55:07.488
51, -6853.98, -7003.32, -6944.24, -6892.27, -74488.52, -84073.89, -112661.77, -133470.00, -6565.24, -6458.04, -6691.22, -6447.74, -90031.26, -86560.73, -99407.15, -136561.67, 0.000, 0.000, 0.000, 03:55:07.493
52, -6853.98, -7003.32, -6944.24, -6892.27, -74488.52, -84073.89, -112661.77, -133470.00, -6553.53, -6452.75, -6685.50, -6444.68, -90022.34, -86560.15, -99402.95, -136558.67, 0.000, 0.000, 0.000, 03:55:07.495
53, -6830.67, -6997.17, -6941.04, -6894.86, -74459.65, -84080.24, -112657.68, -133479.63, -6553.53, -6452.75, -6685.50, -6444.68, -90022.34, -86560.15, -99402.95, -136558.67, 0.000, 0.000, 0.000, 03:55:07.500
54, -6830.67, -6997.17, -6941.04, -6894.86, -74459.65, -84080.24, -112657.68, -133479.63, -6558.74, -6454.02, -6688.20, -6445.71, -90026.59, -86559.52, -99405.13, -136559.67, 0.000, 0.000, 0.000, 03:55:07.503
55, -6853.38, -7003.05, -6945.33, -6892.05, -74490.20, -84072.93, -112661.05, -133469.09, -6558.74, -6454.02, -6688.20, -6445.71, -90026.59, -86559.52, -99405.13, -136559.67, 0.000, 0.000, 0.000, 03:55:07.508
56, -6853.38, -7003.05, -6945.33, -6892.05, -74490.20, -84072.93, -112661.05, -133469.09, -6558.25, -6455.50, -6687.78, -6446.60, -90026.90, -86561.87, -99404.17, -136560.14, 0.016, 0.942, 0.286, 03:55:07.513
57, -6836.08, -7002.51, -6945.31, -6900.16, -74466.82, -84087.95, -112662.73, -133484.70, -6558.25, -6455.50, -6687.78, -6446.60, -90026.90, -86561.87, -99404.17, -136560.14, 0.000, 0.000, 0.000, 03:55:07.515
58, -6836.08, -7002.51, -6945.31, -6900.16, -74466.82, -84087.95, -112662.73, -133484.70, -6563.97, -6461.98, -6696.27, -6454.76, -90033.00, -86569.09, -99413.83, -136568.19, 0.000, 0.000, 0.000, 03:55:07.519
59, -6862.21, -7011.70, -6954.86, -6901.41, -74500.73, -84085.77, -112670.13, -133477.06, -6563.97, -6461.98, -6696.27, -6454.76, -90033.00, -86569.09, -99413.83, -136568.19, 0.000, 0.000, 0.000, 03:55:07.523
60, -6862.21, -7011.70, -6954.86, -6901.41, -74500.73, -84085.77, -112670.13, -133477.06, -6568.44, -6465.22, -6695.71, -6453.66, -90036.34, -86568.75, -99411.26, -136567.09, 0.000, 0.000, 0.000, 03:55:07.527
61, -6838.72, -7004.90, -6949.07, -6902.89, -74471.54, -84093.32, -112665.13, -133485.86, -6568.44, -6465.22, -6695.71, -6453.66, -90036.34, -86568.75, -99411.26, -136567.09, 0.000, 0.000, 0.000, 03:55:07.532
62, -6838.72, -7004.90, -6949.07, -6902.89, -74471.54, -84093.32, -112665.13, -133485.86, -6557.22, -6457.53, -6692.56, -6451.65, -90027.55, -86567.14, -99410.50, -136564.89, 0.000, 0.000, 0.000, 03:55:07.535
63, -6854.32, -7004.23, -6946.85, -6893.72, -74493.34, -84078.84, -112661.91, -133468.86, -6557.22, -6457.53, -6692.56, -6451.65, -90027.55, -86567.14, -99410.50, -136564.89, 0.000, 0.000, 0.000, 03:55:07.540
64, -6854.32, -7004.23, -6946.85, -6893.72, -74493.34, -84078.84, -112661.91, -133468.86, -6564.73, -6456.44, -6688.33, -6445.33, -90030.63, -86561.09, -99402.49, -136558.38, 0.000, 0.000, 0.000, 03:55:07.543
65, -6834.56, -6999.25, -6941.92, -6896.54, -74468.81, -84085.29, -112658.58, -133479.34, -6564.73, -6456.44, -6688.33, -6445.33, -90030.63, -86561.09, -99402.49, -136558.38, 0.010, 0.952, 0.298, 03:55:07.546
66, -6834.56, -6999.25, -6941.92, -6896.54, -74468.81, -84085.29, -112658.58, -133479.34, -6549.28, -6449.98, -6688.04, -6447.85, -90021.42, -86565.20, -99406.50, -136561.23, 0.000, 0.000, 0.000, 03:55:07.551
67, -6851.52, -7002.87, -6946.03, -6893.03, -74491.88, -84077.38, -112660.05, -133468.92, -6549.28, -6449.98, -6688.04, -6447.85, -90021.42, -86565.20, -99406.50, -136561.23, 0.000, 0.000, 0.000, 03:55:07.556
68, -6851.52, -7002.87, -6946.03, -6893.03, -74491.88, -84077.38, -112660.05, -133468.92, -6566.12, -6456.46, -6687.71, -6444.23, -90031.93, -86560.50, -99401.06, -136556.84, 0.000, 0.000, 0.000, 03:55:07.559
69, -6835.19, -6999.02, -6941.27, -6894.22, -74471.95, -84084.53, -112656.27, -133475.97, -6566.12, -6456.46, -6687.71, -6444.23, -90031.93, -86560.50, -99401.06, -136556.84, 0.000, 0.000, 0.000, 03:55:07.564
70, -6835.19, -6999.02, -6941.27, -6894.22, -74471.95, -84084.53, -112656.27, -133475.97, -6548.30, -6450.67, -6687.53, -6448.14, -90019.88, -86565.62, -99406.19, -136560.86, 0.000, 0.000, 0.000, 03:55:07.569
71, -6849.98, -7002.06, -6945.07, -6893.72, -74490.38, -84081.43, -112660.09, -133469.55, -6548.30, -6450.67, -6687.53, -6448.14, -90019.88, -86565.62, -99406.19, -136560.86, 0.000, 0.000, 0.000, 03:55:07.571
72, -6849.98, -7002.06, -6945.07, -6893.72, -74490.38, -84081.43, -112660.09, -133469.55, -6568.15, -6458.07, -6688.63, -6444.41, -90033.20, -86559.59, -99401.16, -136557.00, 0.000, 0.000, 0.000, 03:55:07.576
73, -6840.24, -7000.97, -6942.54, -6896.18, -74478.76, -84087.57, -112658.69, -133476.56, -6568.15, -6458.07, -6688.63, -6444.41, -90033.20, -86559.59, -99401.16, -136557.00, 0.000, 0.000, 0.000, 03:55:07.579
74, -6840.24, -7000.97, -6942.54, -6896.18, -74478.76, -84087.57, -112658.69, -133476.56, -6550.31, -6454.74, -6690.79, -6451.65, -90022.03, -86569.69, -99409.31, -136564.28, 0.000, 0.000, 0.000, 03:55:07.584
75, -6849.92, -7005.04, -6948.31, -6896.94, -74491.39, -84084.40, -112662.02, -133473.11, -6550.31, -6454.74, -6690.79, -6451.65, -90022.03, -86569.69, -99409.31, -136564.28, 0.010, 0.934, 0.288, 03:55:07.586
76, -6849.92, -7005.04, -6948.31, -6896.94, -74491.39, -84084.40, -112662.02, -133473.11, -6571.97, -6460.79, -6691.11, -6446.58, -90036.63, -86562.11, -99403.19, -136558.97, 0.000, 0.000, 0.000, 03:55:07.591
77, -6844.31, -7003.27, -6944.78, -6897.46, -74484.88, -84086.01, -112660.12, -133477.14, -6571.97, -6460.79, -6691.11, -6446.58, -90036.63, -86562.11, -99403.19, -136558.97, 0.000, 0.000, 0.000, 03:55:07.597
78, -6844.31, -7003.27, -6944.78, -6897.46, -74484.88, -84086.01, -112660.12, -133477.14, -6548.86, -6452.23, -6689.74, -6450.38, -90020.10, -86569.11, -99407.88, -136563.05, 0.000, 0.000, 0.000, 03:55:07.601
79, -6844.71, -7001.17, -6942.94, -6894.15, -74485.98, -84080.66, -112657.84, -133472.09, -6548.86, -6452.23, -6689.74, -6450.38, -90020.10, -86569.11, -99407.88, -136563.05, 0.000, 0.000, 0.000, 03:55:07.604
80, -6844.71, -7001.17, -6942.94, -6894.15, -74485.98, -84080.66, -112657.84, -133472.09, -6568.82, -6457.84, -6687.51, -6442.51, -90033.36, -86558.67, -99399.27, -136554.78, 0.000, 0.000, 0.000, 03:55:07.609
81, -6843.63, -7001.35, -6943.88, -6893.55, -74487.48, -84082.27, -112656.21, -133471.69, -6568.82, -6457.84, -6687.51, -6442.51, -90033.36, -86558.67, -99399.27, -136554.78, 0.000, 0.000, 0.000, 03:55:07.612
82, -6843.63, -7001.35, -6943.88, -6893.55, -74487.48, -84082.27, -112656.21, -133471.69, -6546.00, -6451.32, -6686.46, -6448.03, -90018.18, -86567.16, -99404.89, -136560.38, 0.000, 0.000, 0.000, 03:55:07.615
83, -6839.86, -6999.14, -6942.79, -6893.66, -74481.95, -84083.44, -112656.14, -133471.66, -6546.00, -6451.32, -6686.46, -6448.03, -90018.18, -86567.16, -99404.89, -136560.38, 0.000, 0.000, 0.000, 03:55:07.620
84, -6839.86, -6999.14, -6942.79, -6893.66, -74481.95, -84083.44, -112656.14, -133471.66, -6570.07, -6458.29, -6689.18, -6444.28, -90034.01, -86559.99, -99400.75, -136556.06, 0.000, 0.000, 0.000, 03:55:07.623
85, -6849.94, -7004.39, -6944.87, -6895.83, -74495.43, -84086.66, -112659.63, -133472.75, -6570.07, -6458.29, -6689.18, -6444.28, -90034.01, -86559.99, -99400.75, -136556.06, 0.014, 0.932, 0.286, 03:55:07.628
86, -6849.94, -7004.39, -6944.87, -6895.83, -74495.43, -84086.66, -112659.63, -133472.75, -6550.16, -6453.93, -6689.81, -6450.87, -90021.34, -86570.72, -99407.30, -136562.92, 0.000, 0.000, 0.000, 03:55:07.631
87, -6839.95, -7001.35, -6945.40, -6897.10, -74483.32, -84088.71, -112658.20, -133475.47, -6550.16, -6453.93, -6689.81, -6450.87, -90021.34, -86570.72, -99407.30, -136562.92, 0.000, 0.000, 0.000, 03:55:07.636
88, -6839.95, -7001.35, -6945.40, -6897.10, -74483.32, -84088.71, -112658.20, -133475.47, -6568.33, -6458.40, -6689.23, -6444.79, -90033.63, -86561.77, -99401.40, -136556.41, 0.000, 0.000, 0.000, 03:55:07.638
89, -6851.23, -7004.84, -6946.74, -6895.09, -74498.88, -84084.33, -112658.45, -133469.53, -6568.33, -6458.40, -6689.23, -6444.79, -90033.63, -86561.77, -99401.40, -136556.41, 0.000, 0.000, 0.000, 03:55:07.643
90, -6851.23, -7004.84, -6946.74, -6895.09, -74498.88, -84084.33, -112658.45, -133469.53, -6551.18, -6453.17, -6688.63, -6449.57, -90021.49, -86569.98, -99405.52, -136561.05, 0.000, 0.000, 0.000, 03:55:07.646
91, -6835.19, -6998.51, -6940.86, -6894.02, -74478.80, -84085.85, -112654.20, -133473.06, -6551.18, -6453.17, -6688.63, -6449.57, -90021.49, -86569.98, -99405.52, -136561.05, 0.000, 0.000, 0.000, 03:55:07.652
92, -6835.19, -6998.51, -6940.86, -6894.02, -74478.80, -84085.85, -112654.20, -133473.06, -6565.09, -6453.53, -6687.24, -6443.05, -90029.85, -86560.39, -99399.19, -136554.11, 0.000, 0.000, 0.000, 03:55:07.657
93, -6853.36, -7003.72, -6943.81, -6893.19, -74502.56, -84082.45, -112657.23, -133467.48, -6565.09, -6453.53, -6687.24, -6443.05, -90029.85, -86560.39, -99399.19, -136554.11, 0.000, 0.000, 0.000, 03:55:07.659
94, -6853.36, -7003.72, -6943.81, -6893.19, -74502.56, -84082.45, -112657.23, -133467.48, -6551.94, -6452.70, -6687.93, -6448.30, -90022.12, -86568.95, -99403.57, -136559.39, 0.000, 0.000, 0.000, 03:55:07.663
95, -6834.67, -6999.85, -6943.48, -6896.72, -74479.59, -84090.16, -112655.45, -133475.83, -6551.94, -6452.70, -6687.93, -6448.30, -90022.12, -86568.95, -99403.57, -136559.39, 0.012, 0.932, 0.284, 03:55:07.667
96, -6834.67, -6999.85, -6943.48, -6896.72, -74479.59, -84090.16, -112655.45, -133475.83, -6563.68, -6456.32, -6688.80, -6445.42, -90029.90, -86563.38, -99401.55, -136556.30, 0.000, 0.000, 0.000, 03:55:07.670
97, -6852.37, -7002.35, -6944.19, -6891.42, -74504.48, -84082.61, -112655.67, -133464.16, -6563.68, -6456.32, -6688.80, -6445.42, -90029.90, -86563.38, -99401.55, -136556.30, 0.000, 0.000, 0.000, 03:55:07.676
98, -6852.37, -7002.35, -6944.19, -6891.42, -74504.48, -84082.61, -112655.67, -133464.16, -6553.22, -6453.86, -6686.73, -6446.58, -90022.34, -86566.34, -99401.42, -136557.28, 0.000, 0.000, 0.000, 03:55:07.679
99, -6832.68, -6997.79, -6940.19, -6895.24, -74478.18, -84091.33, -112653.64, -133474.69, -6553.22, -6453.86, -6686.73, -6446.58, -90022.34, -86566.34, -99401.42, -136557.28, 0.000, 0.000, 0.000, 03:55:07.683
100, -6832.68, -6997.79, -6940.19, -6895.24, -74478.18, -84091.33, -112653.64, -133474.69, -6559.05, -6454.11, -6687.08, -6444.48, -90026.14, -86562.27, -99400.33, -136554.89, 0.000, 0.000, 0.000, 03:55:07.688
101, -6852.04, -7001.10, -6943.84, -6889.86, -74505.85, -84081.56, -112654.20, -133461.17, -6559.05, -6454.11, -6687.08, -6444.48, -90026.14, -86562.27, -99400.33, -136554.89, 0.000, 0.000, 0.000, 03:55:07.691
102, -6852.04, -7001.10, -6943.84, -6889.86, -74505.85, -84081.56, -112654.20, -133461.17, -6555.25, -6453.75, -6685.32, -6444.68, -90023.15, -86564.91, -99399.05, -136555.20, 0.000, 0.000, 0.000, 03:55:07.694
103, -6832.59, -6998.51, -6941.24, -6895.45, -74480.16, -84092.02, -112653.28, -133474.48, -6555.25, -6453.75, -6685.32, -6444.68, -90023.15, -86564.91, -99399.05, -136555.20, 0.000, 0.000, 0.000, 03:55:07.699
104, -6832.59, -6998.51, -6941.24, -6895.45, -74480.16, -84092.02, -112653.28, -133474.48, -6555.90, -6452.68, -6686.93, -6444.86, -90024.30, -86564.28, -99400.62, -136555.09, 0.000, 0.000, 0.000, 03:55:07.703
105, -6852.31, -7000.72, -6941.94, -6888.96, -74506.92, -84080.51, -112652.97, -133459.56, -6555.90, -6452.68, -6686.93, -6444.86, -90024.30, -86564.28, -99400.62, -136555.09, 0.014, 0.936, 0.296, 03:55:07.706
106, -6852.31, -7000.72, -6941.94, -6888.96, -74506.92, -84080.51, -112652.97, -133459.56, -6558.67, -6452.55, -6684.71, -6442.87, -90024.20, -86563.23, -99397.02, -136553.03, 0.000, 0.000, 0.000, 03:55:07.711
107, -6831.85, -6997.71, -6940.24, -6894.22, -74480.81, -84090.81, -112651.31, -133472.34, -6558.67, -6452.55, -6684.71, -6442.87, -90024.20, -86563.23, -99397.02, -136553.03, 0.000, 0.000, 0.000, 03:55:07.716
108, -6831.85, -6997.71, -6940.24, -6894.22, -74480.81, -84090.81, -112651.31, -133472.34, -6554.11, -6452.55, -6687.78, -6446.65, -90023.66, -86566.98, -99402.07, -136556.55, 0.000, 0.000, 0.000, 03:55:07.718
109, -6854.16, -7004.32, -6946.68, -6892.61, -74511.26, -84084.33, -112656.01, -133463.80, -6554.11, -6452.55, -6687.78, -6446.65, -90023.66, -86566.98, -99402.07, -136556.55, 0.000, 0.000, 0.000, 03:55:07.723
110, -6854.16, -7004.32, -6946.68, -6892.61, -74511.26, -84084.33, -112656.01, -133463.80, -6562.72, -6456.41, -6687.89, -6445.55, -90029.41, -86565.78, -99399.14, -136555.44, 0.000, 0.000, 0.000, 03:55:07.727
111, -6834.54, -6999.16, -6942.21, -6895.98, -74485.71, -84094.41, -112653.15, -133474.20, -6562.72, -6456.41, -6687.89, -6445.55, -90029.41, -86565.78, -99399.14, -136555.44, 0.000, 0.000, 0.000, 03:55:07.730
112, -6834.54, -6999.16, -6942.21, -6895.98, -74485.71, -84094.41, -112653.15, -133474.20, -6553.93, -6452.68, -6689.30, -6448.48, -90022.61, -86569.16, -99403.61, -136558.17, 0.000, 0.000, 0.000, 03:55:07.735
113, -6853.29, -7002.71, -6943.52, -6891.69, -74509.56, -84085.38, -112654.48, -133462.22, -6553.93, -6452.68, -6689.30, -6448.48, -90022.61, -86569.16, -99403.61, -136558.17, 0.000, 0.000, 0.000, 03:55:07.740
114, -6853.29, -7002.71, -6943.52, -6891.69, -74509.56, -84085.38, -112654.48, -133462.22, -6564.08, -6455.07, -6685.61, -6441.95, -90028.78, -86562.20, -99395.34, -136551.34, 0.000, 0.000, 0.000, 03:55:07.742
115, -6836.42, -6999.58, -6941.42, -6894.86, -74489.24, -84092.16, -112651.96, -133472.16, -6564.08, -6455.07, -6685.61, -6441.95, -90028.78, -86562.20, -99395.34, -136551.34, 0.012, 0.920, 0.270, 03:55:07.746
116, -6836.42, -6999.58, -6941.42, -6894.86, -74489.24, -84092.16, -112651.96, -133472.16, -6554.85, -6455.56, -6691.51, -6451.43, -90024.27, -86573.40, -99406.16, -136561.11, 0.000, 0.000, 0.000, 03:55:07.751
117, -6859.01, -7009.95, -6951.26, -6899.22, -74516.18, -84090.84, -112661.15, -133471.31, -6554.85, -6455.56, -6691.51, -6451.43, -90024.27, -86573.40, -99406.16, -136561.11, 0.000, 0.000, 0.000, 03:55:07.754
118, -6859.01, -7009.95, -6951.26, -6899.22, -74516.18, -84090.84, -112661.15, -133471.31, -6575.79, -6463.57, -6694.66, -6450.11, -90038.99, -86570.47, -99403.63, -136559.70, 0.000, 0.000, 0.000, 03:55:07.759
119, -6846.56, -7007.65, -6947.64, -6901.57, -74500.82, -84097.09, -112659.18, -133479.63, -6575.79, -6463.57, -6694.66, -6450.11, -90038.99, -86570.47, -99403.63, -136559.70, 0.000, 0.000, 0.000, 03:55:07.762
120, -6846.56, -7007.65, -6947.64, -6901.57, -74500.82, -84097.09, -112659.18, -133479.63, -6555.32, -6457.33, -6693.92, -6454.20, -90025.63, -86577.02, -99408.59, -136563.67, 0.000, 0.000, 0.000, 03:55:07.767
121, -6852.64, -7005.75, -6947.97, -6896.52, -74511.73, -84090.12, -112657.48, -133469.80, -6555.32, -6457.33, -6693.92, -6454.20, -90025.63, -86577.02, -99408.59, -136563.67, 0.000, 0.000, 0.000, 03:55:07.771
122, -6852.64, -7005.75, -6947.97, -6896.52, -74511.73, -84090.12, -112657.48, -133469.80, -6572.46, -6461.26, -6690.55, -6445.89, -90035.88, -86566.18, -99398.92, -136554.83, 0.000, 0.000, 0.000, 03:55:07.773
123, -6844.28, -7003.54, -6946.09, -6897.52, -74502.23, -84097.19, -112655.67, -133473.28, -6572.46, -6461.26, -6690.55, -6445.89, -90035.88, -86566.18, -99398.92, -136554.83, 0.000, 0.000, 0.000, 03:55:07.779
124, -6844.28, -7003.54, -6946.09, -6897.52, -74502.23, -84097.19, -112655.67, -133473.28, -6550.85, -6454.87, -6690.55, -6451.63, -90021.73, -86574.31, -99405.52, -136560.59, 0.010, 0.926, 0.292, 03:55:07.782
125, -6849.45, -7004.14, -6947.01, -6895.92, -74508.62, -84094.99, -112655.58, -133467.41, -6550.85, -6454.87, -6690.55, -6451.63, -90021.73, -86574.31, -99405.52, -136560.59, 0.000, 0.000, 0.000, 03:55:07.787
126, -6849.45, -7004.14, -6947.01, -6895.92, -74508.62, -84094.99, -112655.58, -133467.41, -6573.96, -6461.24, -6691.04, -6446.15, -90037.16, -86566.49, -99398.98, -136554.58, 0.000, 0.000, 0.000, 03:55:07.791
127, -6849.20, -7006.06, -6946.61, -6897.59, -74508.98, -84097.16, -112655.98, -133469.89, -6573.96, -6461.24, -6691.04, -6446.15, -90037.16, -86566.49, -99398.98, -136554.58, 0.000, 0.000, 0.000, 03:55:07.795
128, -6849.20, -7006.06, -6946.61, -6897.59, -74508.98, -84097.16, -112655.98, -133469.89, -6552.77, -6454.29, -6691.58, -6452.46, -90022.74, -86576.73, -99405.78, -136561.23, 0.000, 0.000, 0.000, 03:55:07.799
129, -6846.74, -7004.12, -6946.48, -6896.65, -74506.52, -84092.45, -112655.11, -133468.83, -6552.77, -6454.29, -6691.58, -6452.46, -90022.74, -86576.73, -99405.78, -136561.23, 0.000, 0.000, 0.000, 03:55:07.802
130, -6846.74, -7004.12, -6946.48, -6896.65, -74506.52, -84092.45, -112655.11, -133468.83, -6572.24, -6458.51, -6690.52, -6445.24, -90036.20, -86566.91, -99398.43, -136553.95, 0.000, 0.000, 0.000, 03:55:07.806
131, -6850.16, -7005.28, -6945.42, -6895.49, -74512.55, -84091.26, -112653.97, -133468.05, -6572.24, -6458.51, -6690.52, -6445.24, -90036.20, -86566.91, -99398.43, -136553.95, 0.000, 0.000, 0.000, 03:55:07.811
132, -6850.16, -7005.28, -6945.42, -6895.49, -74512.55, -84091.26, -112653.97, -133468.05, -6551.36, -6454.56, -6690.12, -6450.69, -90021.94, -86575.86, -99403.97, -136559.47, 0.000, 0.000, 0.000, 03:55:07.815
133, -6844.55, -7004.75, -6948.06, -6898.11, -74505.83, -84096.27, -112655.02, -133471.05, -6551.36, -6454.56, -6690.12, -6450.69, -90021.94, -86575.86, -99403.97, -136559.47, 0.000, 0.000, 0.000, 03:55:07.819
134, -6844.55, -7004.75, -6948.06, -6898.11, -74505.83, -84096.27, -112655.02, -133471.05, -6572.04, -6461.87, -6691.62, -6446.71, -90036.96, -86567.56, -99399.61, -136554.95, 0.010, 0.930, 0.284, 03:55:07.822
135, -6851.64, -7004.23, -6947.12, -6894.82, -74516.89, -84095.40, -112653.91, -133465.23, -6572.04, -6461.87, -6691.62, -6446.71, -90036.96, -86567.56, -99399.61, -136554.95, 0.000, 0.000, 0.000, 03:55:07.827
136, -6851.64, -7004.23, -6947.12, -6894.82, -74516.89, -84095.40, -112653.91, -133465.23, -6551.41, -6454.98, -6689.23, -6450.18, -90021.85, -86573.91, -99402.63, -136558.16, 0.000, 0.000, 0.000, 03:55:07.832
137, -6841.78, -7002.62, -6946.03, -6897.59, -74503.41, -84102.02, -112654.11, -133471.30, -6551.41, -6454.98, -6689.23, -6450.18, -90021.85, -86573.91, -99402.63, -136558.16, 0.000, 0.000, 0.000, 03:55:07.834
138, -6841.78, -7002.62, -6946.03, -6897.59, -74503.41, -84102.02, -112654.11, -133471.30, -6570.99, -6460.35, -6691.11, -6446.53, -90035.06, -86567.72, -99399.08, -136554.06, 0.000, 0.000, 0.000, 03:55:07.840
139, -6855.44, -7006.27, -6947.95, -6895.00, -74522.91, -84095.95, -112654.60, -133463.92, -6570.99, -6460.35, -6691.11, -6446.53, -90035.06, -86567.72, -99399.08, -136554.06, 0.000, 0.000, 0.000, 03:55:07.844
140, -6855.44, -7006.27, -6947.95, -6895.00, -74522.91, -84095.95, -112654.60, -133463.92, -6556.68, -6457.75, -6692.07, -6452.23, -90026.21, -86577.55, -99404.41, -136560.34, 0.000, 0.000, 0.000, 03:55:07.848
141, -6841.49, -7004.16, -6946.92, -6899.60, -74503.21, -84100.56, -112654.51, -133473.34, -6556.68, -6457.75, -6692.07, -6452.23, -90026.21, -86577.55, -99404.41, -136560.34, 0.000, 0.000, 0.000, 03:55:07.852
142, -6841.49, -7004.16, -6946.92, -6899.60, -74503.21, -84100.56, -112654.51, -133473.34, -6568.71, -6458.13, -6690.75, -6445.89, -90033.02, -86568.80, -99398.96, -136553.84, 0.000, 0.000, 0.000, 03:55:07.855
143, -6856.35, -7005.86, -6945.67, -6892.76, -74525.25, -84088.80, -112652.30, -133461.75, -6568.71, -6458.13, -6690.75, -6445.89, -90033.02, -86568.80, -99398.96, -136553.84, 0.000, 0.000, 0.000, 03:55:07.858
144, -6856.35, -7005.86, -6945.67, -6892.76, -74525.25, -84088.80, -112652.30, -133461.75, -6556.91, -6454.89, -6689.23, -6448.46, -90025.07, -86574.36, -99400.41, -136556.61, 0.014, 0.944, 0.300, 03:55:07.863
145, -6838.52, -7002.98, -6945.69, -6898.64, -74501.83, -84098.93, -112652.14, -133473.28, -6556.91, -6454.89, -6689.23, -6448.46, -90025.07, -86574.36, -99400.41, -136556.61, 0.000, 0.000, 0.000, 03:55:07.867
146, -6838.52, -7002.98, -6945.69, -6898.64, -74501.83, -84098.93, -112652.14, -133473.28, -6567.43, -6458.25, -6692.42, -6448.54, -90032.94, -86571.92, -99401.34, -136556.19, 0.000, 0.000, 0.000, 03:55:07.870
147, -6859.53, -7008.10, -6948.91, -6895.85, -74530.10, -84094.03, -112655.23, -133463.73, -6567.43, -6458.25, -6692.42, -6448.54, -90032.94, -86571.92, -99401.34, -136556.19, 0.000, 0.000, 0.000, 03:55:07.875
148, -6859.53, -7008.10, -6948.91, -6895.85, -74530.10, -84094.03, -112655.23, -133463.73, -6560.97, -6457.02, -6691.08, -6449.84, -90028.22, -86575.08, -99401.02, -136557.13, 0.000, 0.000, 0.000, 03:55:07.877
149, -6838.92, -7003.02, -6945.29, -6899.29, -74503.32, -84105.32, -112652.74, -133474.36, -6560.97, -6457.02, -6691.08, -6449.84, -90028.22, -86575.08, -99401.02, -136557.13, 0.000, 0.000, 0.000, 03:55:07.882
150, -6838.92, -7003.02, -6945.29, -6899.29, -74503.32, -84105.32, -112652.74, -133474.36, -6565.02, -6457.91, -6692.04, -6449.04, -90030.55, -86572.64, -99401.24, -136556.08, 0.000, 0.000, 0.000, 03:55:07.886
151, -6860.22, -7007.38, -6947.86, -6894.75, -74531.82, -84095.87, -112654.09, -133461.69, -6565.02, -6457.91, -6692.04, -6449.04, -90030.55, -86572.64, -99401.24, -136556.08, 0.000, 0.000, 0.000, 03:55:07.891
152, -6860.22, -7007.38, -6947.86, -6894.75, -74531.82, -84095.87, -112654.09, -133461.69, -6565.22, -6459.99, -6692.27, -6450.20, -90031.44, -86575.50, -99401.06, -136557.28, 0.000, 0.000, 0.000, 03:55:07.894
153, -6840.39, -7005.17, -6947.64, -6901.28, -74505.94, -84105.68, -112653.57, -133475.73, -6565.22, -6459.99, -6692.27, -6450.20, -90031.44, -86575.50, -99401.06, -136557.28, 0.000, 0.000, 0.000, 03:55:07.899
154, -6840.39, -7005.17, -6947.64, -6901.28, -74505.94, -84105.68, -112653.57, -133475.73, -6562.90, -6456.99, -6692.87, -6450.60, -90029.63, -86575.73, -99402.85, -136557.84, 0.012, 0.942, 0.292, 03:55:07.903
155, -6859.53, -7007.74, -6947.39, -6894.06, -74532.78, -84091.75, -112652.85, -133462.03, -6562.90, -6456.99, -6692.87, -6450.60, -90029.63, -86575.73, -99402.85, -136557.84, 0.000, 0.000, 0.000, 03:55:07.905
156, -6859.53, -7007.74, -6947.39, -6894.06, -74532.78, -84091.75, -112652.85, -133462.03, -6565.60, -6456.19, -6689.50, -6446.40, -90030.68, -86572.53, -99396.98, -136553.38, 0.000, 0.000, 0.000, 03:55:07.911
157, -6839.21, -7003.74, -6944.37, -6898.66, -74506.59, -84101.45, -112650.87, -133474.06, -6565.60, -6456.19, -6689.50, -6446.40, -90030.68, -86572.53, -99396.98, -136553.38, 0.000, 0.000, 0.000, 03:55:07.915
158, -6839.21, -7003.74, -6944.37, -6898.66, -74506.59, -84101.45, -112650.87, -133474.06, -6558.47, -6455.74, -6692.40, -6451.05, -90027.37, -86577.13, -99403.14, -136558.14, 0.000, 0.000, 0.000, 03:55:07.918
159, -6858.48, -7008.01, -6950.45, -6896.07, -74533.68, -84095.93, -112653.84, -133462.78, -6558.47, -6455.74, -6692.40, -6451.05, -90027.37, -86577.13, -99403.14, -136558.14, 0.000, 0.000, 0.000, 03:55:07.923
160, -6858.48, -7008.01, -6950.45, -6896.07, -74533.68, -84095.93, -112653.84, -133462.78, -6570.05, -6461.49, -6691.98, -6448.57, -90034.84, -86573.60, -99398.85, -136555.09, 0.000, 0.000, 0.000, 03:55:07.926
161, -6840.04, -7003.70, -6945.27, -6898.42, -74510.19, -84106.62, -112650.87, -133471.58, -6570.05, -6461.49, -6691.98, -6448.57, -90034.84, -86573.60, -99398.85, -136555.09, 0.000, 0.000, 0.000, 03:55:07.930
162, -6840.04, -7003.70, -6945.27, -6898.42, -74510.19, -84106.62, -112650.87, -133471.58, -6554.13, -6456.23, -6690.97, -6450.40, -90024.35, -86576.06, -99401.73, -136556.72, 0.000, 0.000, 0.000, 03:55:07.933
163, -6854.63, -7004.88, -6947.01, -6893.61, -74531.09, -84098.73, -112651.24, -133459.80, -6554.13, -6456.23, -6690.97, -6450.40, -90024.35, -86576.06, -99401.73, -136556.72, 0.000, 0.000, 0.000, 03:55:07.938
164, -6854.63, -7004.88, -6947.01, -6893.61, -74531.09, -84098.73, -112651.24, -133459.80, -6566.27, -6457.49, -6687.04, -6443.09, -90031.23, -86567.72, -99392.99, -136549.27, 0.008, 0.952, 0.306, 03:55:07.942
165, -6836.01, -6997.39, -6940.28, -6892.16, -74508.24, -84101.63, -112644.43, -133462.23, -6566.27, -6457.49, -6687.04, -6443.09, -90031.23, -86567.72, -99392.99, -136549.27, 0.000, 0.000, 0.000, 03:55:07.946
166, -6836.01, -6997.39, -6940.28, -6892.16, -74508.24, -84101.63, -112644.43, -133462.23, -6547.29, -6448.28, -6684.71, -6444.68, -90017.09, -86572.02, -99395.84, -136550.92, 0.000, 0.000, 0.000, 03:55:07.951
167, -6847.61, -6999.23, -6940.91, -6888.25, -74524.02, -84092.47, -112644.63, -133454.19, -6547.29, -6448.28, -6684.71, -6444.68, -90017.09, -86572.02, -99395.84, -136550.92, 0.000, 0.000, 0.000, 03:55:07.955
168, -6847.61, -6999.23, -6940.91, -6888.25, -74524.02, -84092.47, -112644.63, -133454.19, -6565.04, -6453.13, -6684.67, -6439.65, -90029.94, -86565.84, -99389.71, -136545.80, 0.000, 0.000, 0.000, 03:55:07.959
169, -6838.69, -6998.02, -6940.13, -6891.94, -74513.61, -84098.93, -112644.36, -133462.31, -6565.04, -6453.13, -6684.67, -6439.65, -90029.94, -86565.84, -99389.71, -136545.80, 0.000, 0.000, 0.000, 03:55:07.962
170, -6838.69, -6998.02, -6940.13, -6891.94, -74513.61, -84098.93, -112644.36, -133462.31, -6547.03, -6447.76, -6686.35, -6446.29, -90017.18, -86575.12, -99397.40, -136552.92, 0.000, 0.000, 0.000, 03:55:07.967
169, -6838.69, -6998.02, -6940.13, -6891.94, -74513.61, -84098.93, -112644.36, -133462.31, -6547.03, -6447.76, -6686.35, -6446.29, -90017.18, -86575.12, -99397.40, -136552.92, 0.000, 0.000, 0.000, 03:55:08.019
172, -6838.69, -6998.02, -6940.13, -6891.94, -74513.61, -84098.93, -112644.36, -133462.31, -6567.32, -6453.51, -6684.89, -6439.74, -90030.99, -86565.66, -99389.38, -136545.02, 0.000, 0.000, 0.000, 03:55:08.020
173, -6841.85, -6999.65, -6941.11, -6891.36, -74518.48, -84098.63, -112643.80, -133460.27, -6567.32, -6453.51, -6684.89, -6439.74, -90030.99, -86565.66, -99389.38, -136545.02, 0.000, 0.000, 0.000, 03:55:08.020
174, -6841.85, -6999.65, -6941.11, -6891.36, -74518.48, -84098.63, -112643.80, -133460.27, -6547.59, -6448.61, -6686.50, -6447.63, -90017.89, -86576.22, -99397.49, -136553.16, 0.012, 0.956, 0.298, 03:55:08.020
175, -6845.67, -7000.77, -6943.44, -6893.28, -74523.66, -84098.91, -112647.06, -133462.23, -6547.59, -6448.61, -6686.50, -6447.63, -90017.89, -86576.22, -99397.49, -136553.16, 0.000, 0.000, 0.000, 03:55:08.021
176, -6845.67, -7000.77, -6943.44, -6893.28, -74523.66, -84098.91, -112647.06, -133462.23, -6570.70, -6456.44, -6688.16, -6442.42, -90033.29, -86568.05, -99391.84, -136547.77, 0.000, 0.000, 0.000, 03:55:08.021
177, -6846.41, -7000.21, -6939.84, -6892.21, -74524.67, -84098.68, -112645.59, -133461.86, -6570.70, -6456.44, -6688.16, -6442.42, -90033.29, -86568.05, -99391.84, -136547.77, 0.000, 0.000, 0.000, 03:55:08.021
178, -6846.41, -7000.21, -6939.84, -6892.21, -74524.67, -84098.68, -112645.59, -133461.86, -6549.06, -6452.55, -6688.31, -6448.84, -90019.59, -86578.18, -99398.77, -136554.47, 0.000, 0.000, 0.000, 03:55:08.021
179, -6845.09, -7002.60, -6945.80, -6896.23, -74523.33, -84102.98, -112648.38, -133466.00, -6549.06, -6452.55, -6688.31, -6448.84, -90019.59, -86578.18, -99398.77, -136554.47, 0.000, 0.000, 0.000, 03:55:08.021
180, -6845.09, -7002.60, -6945.80, -6896.23, -74523.33, -84102.98, -112648.38, -133466.00, -6572.51, -6459.77, -6689.77, -6444.10, -90034.68, -86570.23, -99393.73, -136549.44, 0.000, 0.000, 0.000, 03:55:08.021
181, -6849.07, -7001.06, -6941.38, -6891.78, -74529.81, -84098.34, -112645.45, -133459.83, -6572.51, -6459.77, -6689.77, -6444.10, -90034.68, -86570.23, -99393.73, -136549.44, 0.000, 0.000, 0.000, 03:55:08.021
182, -6849.07, -7001.06, -6941.38, -6891.78, -74529.81, -84098.34, -112645.45, -133459.83, -6548.57, -6450.31, -6686.73, -6446.62, -90018.16, -86576.33, -99396.10, -136551.98, 0.000, 0.000, 0.000, 03:55:08.021
183, -6841.56, -7000.97, -6942.85, -6895.13, -74519.88, -84102.84, -112646.15, -133465.69, -6548.57, -6450.31, -6686.73, -6446.62, -90018.16, -86576.33, -99396.10, -136551.98, 0.000, 0.000, 0.000, 03:55:08.022
184, -6841.56, -7000.97, -6942.85, -6895.13, -74519.88, -84102.84, -112646.15, -133465.69, -6573.16, -6459.59, -6692.42, -6447.23, -90036.69, -86574.16, -99396.39, -136551.92, 0.014, 0.954, 0.304, 03:55:08.024
185, -6855.62, -7007.09, -6948.35, -6895.89, -74539.91, -84102.48, -112649.95, -133462.23, -6573.16, -6459.59, -6692.42, -6447.23, -90036.69, -86574.16, -99396.39, -136551.92, 0.000, 0.000, 0.000, 03:55:08.026
186, -6855.62, -7007.09, -6948.35, -6895.89, -74539.91, -84102.48, -112649.95, -133462.23, -6553.69, -6452.73, -6689.59, -6450.06, -90022.67, -86580.64, -99398.52, -136554.72, 0.000, 0.000, 0.000, 03:55:08.030
187, -6840.28, -7001.86, -6945.02, -6897.50, -74520.42, -84107.89, -112647.85, -133467.77, -6553.69, -6452.73, -6689.59, -6450.06, -90022.67, -86580.64, -99398.52, -136554.72, 0.000, 0.000, 0.000, 03:55:08.035
188, -6840.28, -7001.86, -6945.02, -6897.50, -74520.42, -84107.89, -112647.85, -133467.77, -6570.27, -6459.10, -6692.56, -6447.90, -90035.17, -86575.34, -99397.18, -136552.41, 0.000, 0.000, 0.000, 03:55:08.038
189, -6856.33, -7004.95, -6945.69, -6893.64, -74542.04, -84102.99, -112647.89, -133457.28, -6570.27, -6459.10, -6692.56, -6447.90, -90035.17, -86575.34, -99397.18, -136552.41, 0.000, 0.000, 0.000, 03:55:08.042
190, -6856.33, -7004.95, -6945.69, -6893.64, -74542.04, -84102.99, -112647.89, -133457.28, -6552.75, -6452.90, -6687.06, -6446.91, -90021.73, -86577.47, -99395.12, -136551.30, 0.000, 0.000, 0.000, 03:55:08.045
191, -6835.32, -6998.91, -6943.37, -6894.51, -74516.84, -84108.25, -112643.47, -133462.94, -6552.75, -6452.90, -6687.06, -6446.91, -90021.73, -86577.47, -99395.12, -136551.30, 0.000, 0.000, 0.000, 03:55:08.050
192, -6835.32, -6998.91, -6943.37, -6894.51, -74516.84, -84108.25, -112643.47, -133462.94, -6564.42, -6455.16, -6689.09, -6445.37, -90030.43, -86573.27, -99394.16, -136549.33, 0.000, 0.000, 0.000, 03:55:08.054
193, -6856.84, -7004.88, -6946.59, -6892.81, -74544.88, -84101.77, -112647.18, -133455.22, -6564.42, -6455.16, -6689.09, -6445.37, -90030.43, -86573.27, -99394.16, -136549.33, 0.008, 0.942, 0.290, 03:55:08.057
194, -6856.84, -7004.88, -6946.59, -6892.81, -74544.88, -84101.77, -112647.18, -133455.22, -6558.40, -6454.56, -6690.55, -6449.42, -90026.61, -86580.17, -99397.04, -136553.48, 0.000, 0.000, 0.000, 03:55:08.063
195, -6838.58, -7002.82, -6944.71, -6897.99, -74520.63, -84110.66, -112646.13, -133467.92, -6558.40, -6454.56, -6690.55, -6449.42, -90026.61, -86580.17, -99397.04, -136553.48, 0.000, 0.000, 0.000, 03:55:08.066
196, -6838.58, -7002.82, -6944.71, -6897.99, -74520.63, -84110.66, -112646.13, -133467.92, -6563.59, -6454.60, -6689.92, -6446.56, -90029.41, -86575.75, -99395.23, -136550.33, 0.000, 0.000, 0.000, 03:55:08.069
197, -6857.38, -7005.46, -6946.63, -6892.23, -74547.58, -84099.60, -112646.15, -133455.11, -6563.59, -6454.60, -6689.92, -6446.56, -90029.41, -86575.75, -99395.23, -136550.33, 0.000, 0.000, 0.000, 03:55:08.074
198, -6857.38, -7005.46, -6946.63, -6892.23, -74547.58, -84099.60, -112646.15, -133455.11, -6560.68, -6458.25, -6690.21, -6448.43, -90028.29, -86579.03, -99395.74, -136552.34, 0.000, 0.000, 0.000, 03:55:08.079
199, -6835.32, -7000.43, -6943.30, -6896.79, -74519.87, -84110.05, -112644.61, -133468.41, -6560.68, -6458.25, -6690.21, -6448.43, -90028.29, -86579.03, -99395.74, -136552.34, 0.000, 0.000, 0.000, 03:55:08.082
200, -6835.32, -7000.43, -6943.30, -6896.79, -74519.87, -84110.05, -112644.61, -133468.41, -6559.28, -6457.33, -6689.99, -6447.20, -90026.97, -86575.81, -99395.70, -136550.92, 0.000, 0.000, 0.000, 03:55:08.088
201, -6858.07, -7005.19, -6946.94, -6892.67, -74549.32, -84103.60, -112646.66, -133455.42, -6559.28, -6457.33, -6689.99, -6447.20, -90026.97, -86575.81, -99395.70, -136550.92, 0.000, 0.000, 0.000, 03:55:08.091
202, -6858.07, -7005.19, -6946.94, -6892.67, -74549.32, -84103.60, -112646.66, -133455.42, -6563.90, -6459.07, -6689.16, -6446.67, -90028.87, -86575.79, -99393.11, -136549.58, 0.000, 0.000, 0.000, 03:55:08.094
203, -6837.15, -7000.88, -6942.41, -6896.65, -74521.92, -84113.32, -112643.78, -133466.36, -6563.90, -6459.07, -6689.16, -6446.67, -90028.87, -86575.79, -99393.11, -136549.58, 0.018, 0.962, 0.308, 03:55:08.098
204, -6837.15, -7000.88, -6942.41, -6896.65, -74521.92, -84113.32, -112643.78, -133466.36, -6556.39, -6453.91, -6689.43, -6447.52, -90024.38, -86577.13, -99395.27, -136550.38, 0.000, 0.000, 0.000, 03:55:08.103
205, -6854.25, -7001.50, -6943.03, -6890.17, -74546.66, -84100.02, -112643.67, -133452.72, -6556.39, -6453.91, -6689.43, -6447.52, -90024.38, -86577.13, -99395.27, -136550.38, 0.000, 0.000, 0.000, 03:55:08.106
206, -6854.25, -7001.50, -6943.03, -6890.17, -74546.66, -84100.02, -112643.67, -133452.72, -6564.08, -6455.18, -6687.55, -6444.12, -90028.66, -86574.67, -99390.23, -136547.06, 0.000, 0.000, 0.000, 03:55:08.110
207, -6838.27, -7001.01, -6941.96, -6896.05, -74525.09, -84110.51, -112643.02, -133465.88, -6564.08, -6455.18, -6687.55, -6444.12, -90028.66, -86574.67, -99390.23, -136547.06, 0.000, 0.000, 0.000, 03:55:08.114
208, -6838.27, -7001.01, -6941.96, -6896.05, -74525.09, -84110.51, -112643.02, -133465.88, -6556.57, -6453.02, -6690.15, -6448.70, -90023.66, -86580.35, -99396.21, -136551.55, 0.000, 0.000, 0.000, 03:55:08.118
209, -6858.23, -7006.71, -6945.71, -6893.93, -74550.42, -84102.59, -112646.09, -133455.98, -6556.57, -6453.02, -6690.15, -6448.70, -90023.66, -86580.35, -99396.21, -136551.55, 0.000, 0.000, 0.000, 03:55:08.122
210, -6858.23, -7006.71, -6945.71, -6893.93, -74550.42, -84102.59, -112646.09, -133455.98, -6571.52, -6460.23, -6691.98, -6447.41, -90034.86, -86578.59, -99393.55, -136550.22, 0.000, 0.000, 0.000, 03:55:08.125
211, -6841.73, -7004.16, -6945.27, -6898.98, -74531.30, -84112.25, -112645.81, -133468.44, -6571.52, -6460.23, -6691.98, -6447.41, -90034.86, -86578.59, -99393.55, -136550.22, 0.000, 0.000, 0.000, 03:55:08.130
212, -6841.73, -7004.16, -6945.27, -6898.98, -74531.30, -84112.25, -112645.81, -133468.44, -6553.87, -6453.69, -6691.44, -6450.96, -90023.57, -86583.50, -99398.05, -136553.83, 0.000, 0.000, 0.000, 03:55:08.134
213, -6853.98, -7004.28, -6945.94, -6893.48, -74548.52, -84105.21, -112645.10, -133456.83, -6553.87, -6453.69, -6691.44, -6450.96, -90023.57, -86583.50, -99398.05, -136553.83, 0.018, 0.952, 0.310, 03:55:08.138
214, -6853.98, -7004.28, -6945.94, -6893.48, -74548.52, -84105.21, -112645.10, -133456.83, -6570.34, -6456.95, -6688.65, -6443.99, -90032.76, -86574.47, -99389.30, -136545.75, 0.000, 0.000, 0.000, 03:55:08.143
215, -6840.57, -7000.39, -6941.11, -6893.93, -74531.53, -84112.00, -112640.95, -133461.30, -6570.34, -6456.95, -6688.65, -6443.99, -90032.76, -86574.47, -99389.30, -136545.75, 0.000, 0.000, 0.000, 03:55:08.145
216, -6840.57, -7000.39, -6941.11, -6893.93, -74531.53, -84112.00, -112640.95, -133461.30, -6548.12, -6449.28, -6686.70, -6446.98, -90017.83, -86579.68, -99393.38, -136548.91, 0.000, 0.000, 0.000, 03:55:08.150
217, -6848.73, -7000.36, -6942.27, -6891.04, -74543.38, -84105.59, -112641.14, -133453.72, -6548.12, -6449.28, -6686.70, -6446.98, -90017.83, -86579.68, -99393.38, -136548.91, 0.000, 0.000, 0.000, 03:55:08.153
218, -6848.73, -7000.36, -6942.27, -6891.04, -74543.38, -84105.59, -112641.14, -133453.72, -6570.59, -6458.92, -6688.45, -6443.09, -90033.34, -86573.73, -99388.46, -136544.75, 0.000, 0.000, 0.000, 03:55:08.157
219, -6844.46, -7002.60, -6943.30, -6894.78, -74538.70, -84111.35, -112642.15, -133461.08, -6570.59, -6458.92, -6688.45, -6443.09, -90033.34, -86573.73, -99388.46, -136544.75, 0.000, 0.000, 0.000, 03:55:08.162
220, -6844.46, -7002.60, -6943.30, -6894.78, -74538.70, -84111.35, -112642.15, -133461.08, -6550.96, -6454.27, -6689.52, -6449.77, -90020.42, -86583.30, -99395.86, -136551.72, 0.000, 0.000, 0.000, 03:55:08.166
221, -6851.77, -7006.11, -6947.48, -6896.70, -74547.18, -84109.84, -112645.32, -133460.09, -6550.96, -6454.27, -6689.52, -6449.77, -90020.42, -86583.30, -99395.86, -136551.72, 0.000, 0.000, 0.000, 03:55:08.170
222, -6851.77, -7006.11, -6947.48, -6896.70, -74547.18, -84109.84, -112645.32, -133460.09, -6574.61, -6463.21, -6692.18, -6446.31, -90037.43, -86577.09, -99391.95, -136547.94, 0.000, 0.000, 0.000, 03:55:08.173
223, -6848.84, -7005.15, -6945.25, -6896.43, -74545.08, -84110.86, -112643.65, -133460.61, -6574.61, -6463.21, -6692.18, -6446.31, -90037.43, -86577.09, -99391.95, -136547.94, 0.014, 0.938, 0.294, 03:55:08.177
224, -6848.84, -7005.15, -6945.25, -6896.43, -74545.08, -84110.86, -112643.65, -133460.61, -6552.79, -6457.78, -6692.20, -6452.66, -90022.84, -86586.56, -99398.16, -136554.25, 0.000, 0.000, 0.000, 03:55:08.182
225, -6848.57, -7005.77, -6948.75, -6897.88, -74545.39, -84113.43, -112645.37, -133462.16, -6552.79, -6457.78, -6692.20, -6452.66, -90022.84, -86586.56, -99398.16, -136554.25, 0.000, 0.000, 0.000, 03:55:08.185
226, -6848.57, -7005.77, -6948.75, -6897.88, -74545.39, -84113.43, -112645.37, -133462.16, -6572.93, -6463.54, -6691.60, -6446.29, -90036.63, -86576.51, -99391.19, -136547.25, 0.000, 0.000, 0.000, 03:55:08.190
227, -6851.73, -7005.53, -6946.65, -6896.23, -74550.46, -84114.40, -112644.34, -133458.97, -6572.93, -6463.54, -6691.60, -6446.29, -90036.63, -86576.51, -99391.19, -136547.25, 0.000, 0.000, 0.000, 03:55:08.194
228, -6851.73, -7005.53, -6946.65, -6896.23, -74550.46, -84114.40, -112644.34, -133458.97, -6551.61, -6456.97, -6690.39, -6451.16, -90020.93, -86584.64, -99395.86, -136552.28, 0.000, 0.000, 0.000, 03:55:08.199
229, -6843.32, -7001.91, -6945.02, -6895.96, -74540.30, -84116.18, -112642.30, -133459.20, -6551.61, -6456.97, -6690.39, -6451.16, -90020.93, -86584.64, -99395.86, -136552.28, 0.000, 0.000, 0.000, 03:55:08.201
230, -6843.32, -7001.91, -6945.02, -6895.96, -74540.30, -84116.18, -112642.30, -133459.20, -6571.64, -6461.13, -6690.15, -6444.86, -90034.09, -86575.81, -99389.38, -136545.50, 0.000, 0.000, 0.000, 03:55:08.205
231, -6851.84, -7002.82, -6942.47, -6892.00, -74552.12, -84110.51, -112640.38, -133453.05, -6571.64, -6461.13, -6690.15, -6444.86, -90034.09, -86575.81, -99389.38, -136545.50, 0.000, 0.000, 0.000, 03:55:08.210
232, -6851.84, -7002.82, -6942.47, -6892.00, -74552.12, -84110.51, -112640.38, -133453.05, -6549.11, -6451.38, -6686.23, -6446.51, -90018.25, -86582.07, -99390.59, -136547.20, 0.000, 0.000, 0.000, 03:55:08.213
233, -6838.74, -6999.76, -6941.54, -6893.57, -74536.23, -84111.82, -112638.38, -133458.64, -6549.11, -6451.38, -6686.23, -6446.51, -90018.25, -86582.07, -99390.59, -136547.20, 0.020, 0.940, 0.284, 03:55:08.218
234, -6838.74, -6999.76, -6941.54, -6893.57, -74536.23, -84111.82, -112638.38, -133458.64, -6567.86, -6454.47, -6687.78, -6442.64, -90030.41, -86575.75, -99387.14, -136543.27, 0.000, 0.000, 0.000, 03:55:08.223
235, -6853.98, -7003.90, -6943.66, -6892.14, -74556.72, -84106.77, -112640.59, -133452.98, -6567.86, -6454.47, -6687.78, -6442.64, -90030.41, -86575.75, -99387.14, -136543.27, 0.000, 0.000, 0.000, 03:55:08.225
236, -6853.98, -7003.90, -6943.66, -6892.14, -74556.72, -84106.77, -112640.59, -133452.98, -6554.92, -6453.48, -6689.74, -6449.31, -90022.99, -86586.03, -99392.98, -136550.11, 0.000, 0.000, 0.000, 03:55:08.230
237, -6841.62, -7004.05, -6944.60, -6898.60, -74539.65, -84117.57, -112642.30, -133465.25, -6554.92, -6453.48, -6689.74, -6449.31, -90022.99, -86586.03, -99392.98, -136550.11, 0.000, 0.000, 0.000, 03:55:08.233
238, -6841.62, -7004.05, -6944.60, -6898.60, -74539.65, -84117.57, -112642.30, -133465.25, -6569.92, -6459.34, -6692.22, -6447.52, -90033.47, -86580.91, -99391.79, -136547.81, 0.000, 0.000, 0.000, 03:55:08.237
239, -6859.66, -7007.94, -6947.91, -6895.71, -74564.41, -84112.83, -112644.09, -133455.72, -6569.92, -6459.34, -6692.22, -6447.52, -90033.47, -86580.91, -99391.79, -136547.81, 0.000, 0.000, 0.000, 03:55:08.241
240, -6859.66, -7007.94, -6947.91, -6895.71, -74564.41, -84112.83, -112644.09, -133455.72, -6559.61, -6460.44, -6692.60, -6451.85, -90027.05, -86587.39, -99394.88, -136552.08, 0.000, 0.000, 0.000, 03:55:08.246
241, -6842.00, -7005.17, -6947.68, -6901.41, -74541.39, -84123.83, -112644.30, -133467.72, -6559.61, -6460.44, -6692.60, -6451.85, -90027.05, -86587.39, -99394.88, -136552.08, 0.000, 0.000, 0.000, 03:55:08.250
242, -6842.00, -7005.17, -6947.68, -6901.41, -74541.39, -84123.83, -112644.30, -133467.72, -6569.92, -6463.77, -6694.77, -6451.07, -90034.37, -86583.99, -99394.88, -136550.69, 0.000, 0.000, 0.000, 03:55:08.253
243, -6862.32, -7008.66, -6947.64, -6895.71, -74567.85, -84113.99, -112644.36, -133454.69, -6569.92, -6463.77, -6694.77, -6451.07, -90034.37, -86583.99, -99394.88, -136550.69, 0.024, 0.942, 0.292, 03:55:08.258
244, -6862.32, -7008.66, -6947.64, -6895.71, -74567.85, -84113.99, -112644.36, -133454.69, -6562.25, -6460.79, -6691.33, -6449.51, -90027.50, -86584.82, -99392.02, -136549.13, 0.000, 0.000, 0.000, 03:55:08.262
245, -6839.92, -7003.99, -6944.84, -6899.56, -74540.00, -84120.83, -112641.45, -133466.67, -6562.25, -6460.79, -6691.33, -6449.51, -90027.50, -86584.82, -99392.02, -136549.13, 0.000, 0.000, 0.000, 03:55:08.265
246, -6839.92, -7003.99, -6944.84, -6899.56, -74540.00, -84120.83, -112641.45, -133466.67, -6564.01, -6460.86, -6692.76, -6449.46, -90030.05, -86583.79, -99393.48, -136549.38, 0.000, 0.000, 0.000, 03:55:08.269
247, -6860.47, -7007.50, -6947.77, -6894.64, -74568.79, -84110.38, -112642.95, -133454.14, -6564.01, -6460.86, -6692.76, -6449.46, -90030.05, -86583.79, -99393.48, -136549.38, 0.000, 0.000, 0.000, 03:55:08.274
248, -6860.47, -7007.50, -6947.77, -6894.64, -74568.79, -84110.38, -112642.95, -133454.14, -6562.99, -6460.79, -6689.99, -6447.43, -90028.42, -86583.26, -99389.69, -136547.11, 0.000, 0.000, 0.000, 03:55:08.279
249, -6838.05, -7002.40, -6943.55, -6897.93, -74540.41, -84120.72, -112639.20, -133464.23, -6562.99, -6460.79, -6689.99, -6447.43, -90028.42, -86583.26, -99389.69, -136547.11, 0.000, 0.000, 0.000, 03:55:08.281
250, -6838.05, -7002.40, -6943.55, -6897.93, -74540.41, -84120.72, -112639.20, -133464.23, -6561.24, -6460.39, -6692.16, -6449.37, -90027.52, -86584.38, -99392.95, -136548.81, 0.000, 0.000, 0.000, 03:55:08.285
251, -6859.86, -7007.03, -6947.61, -6894.53, -74569.40, -84114.30, -112641.92, -133451.52, -6561.24, -6460.39, -6692.16, -6449.37, -90027.52, -86584.38, -99392.95, -136548.81, 0.000, 0.000, 0.000, 03:55:08.290
252, -6859.86, -7007.03, -6947.61, -6894.53, -74569.40, -84114.30, -1126