%OpenBCI Raw EEG Data
%
%Sample Rate = 250.0 Hz
%First Column = SampleIndex
%Last Column = Timestamp 
%Other Columns = EEG data in microvolts followed by Accel Data (in G) interleaved with Aux Data
0, 0.00, 0.00, 0.00, 0.00, 0.00, 0.00, 0.00, 0.00, -8949.68, 148.17, -3280.59, 31.45, -85003.52, -89205.18, -82044.78, -112532.67, -0.022, 0.948, 0.290, 11:20:11.530
1, -9320.86, -4843.91, -6743.41, -6307.37, -103053.25, -84848.36, -95105.69, -131243.14, -8949.68, 148.17, -3280.59, 31.45, -85003.52, -89205.18, -82044.78, -112532.67, 0.000, 0.000, 0.000, 11:20:11.533
2, -9320.86, -4843.91, -6743.41, -6307.37, -103053.25, -84848.36, -95105.69, -131243.14, -3157.83, -5086.77, -6633.35, -5341.28, -82334.23, -89057.30, -81494.99, -112332.94, 0.000, 0.000, 0.000, 11:20:11.541
3, -4008.38, -8473.55, -6628.90, -7012.32, -101465.14, -86040.89, -94745.22, -131859.48, -3157.83, -5086.77, -6633.35, -5341.28, -82334.23, -89057.30, -81494.99, -112332.94, 0.000, 0.000, 0.000, 11:20:11.547
4, -4008.38, -8473.55, -6628.90, -7012.32, -101465.14, -86040.89, -94745.22, -131859.48, -7136.11, -2877.83, -6155.49, -3131.17, -82821.62, -88817.16, -81252.84, -112067.30, 0.000, 0.000, 0.000, 11:20:11.550
5, -9814.27, -4711.84, -6729.33, -6275.14, -103073.50, -84845.32, -95097.33, -131229.92, -7136.11, -2877.83, -6155.49, -3131.17, -82821.62, -88817.16, -81252.84, -112067.30, 0.000, 0.000, 0.000, 11:20:11.556
6, -9814.27, -4711.84, -6729.33, -6275.14, -103073.50, -84845.32, -95097.33, -131229.92, -4233.60, -4273.81, -6456.30, -4579.05, -82810.51, -88954.09, -81447.77, -112241.52, -0.020, 0.936, 0.292, 11:20:11.563
7, -3533.01, -8544.49, -6637.26, -7033.58, -101466.55, -86055.80, -94758.43, -131875.73, -4233.60, -4273.81, -6456.30, -4579.05, -82810.51, -88954.09, -81447.77, -112241.52, 0.000, 0.000, 0.000, 11:20:11.568
8, -3533.01, -8544.49, -6637.26, -7033.58, -101466.55, -86055.80, -94758.43, -131875.73, -6005.71, -3756.48, -6331.13, -3937.77, -82335.66, -88953.97, -81299.33, -112161.20, 0.000, 0.000, 0.000, 11:20:11.569
9, -10149.32, -4695.77, -6719.02, -6262.78, -103040.35, -84837.74, -95074.64, -131221.86, -6005.71, -3756.48, -6331.13, -3937.77, -82335.66, -88953.97, -81299.33, -112161.20, 0.000, 0.000, 0.000, 11:20:11.576
10, -10149.32, -4695.77, -6719.02, -6262.78, -103040.35, -84837.74, -95074.64, -131221.86, -5435.68, -3396.19, -6283.39, -3772.91, -83309.15, -88785.51, -81401.92, -112142.74, 0.000, 0.000, 0.000, 11:20:11.584
11, -3358.08, -8504.59, -6660.28, -7030.81, -101530.56, -86005.15, -94790.66, -131867.02, -5435.68, -3396.19, -6283.39, -3772.91, -83309.15, -88785.51, -81401.92, -112142.74, 0.000, 0.000, 0.000, 11:20:11.594
12, -3358.08, -8504.59, -6660.28, -7030.81, -101530.56, -86005.15, -94790.66, -131867.02, -4825.41, -4596.50, -6514.77, -4745.10, -81878.21, -89081.17, -81358.78, -112262.82, 0.000, 0.000, 0.000, 11:20:11.600
13, -10232.23, -4776.32, -6700.18, -6280.44, -102952.13, -84903.43, -95046.19, -131251.39, -4825.41, -4596.50, -6514.77, -4745.10, -81878.21, -89081.17, -81358.78, -112262.82, 0.000, 0.000, 0.000, 11:20:11.600
14, -10232.23, -4776.32, -6700.18, -6280.44, -102952.13, -84903.43, -95046.19, -131251.39, -6554.65, -2528.61, -6092.59, -2956.69, -83727.33, -88683.85, -81344.25, -112047.48, 0.000, 0.000, 0.000, 11:20:11.606
15, -3221.49, -8339.10, -6661.33, -7002.62, -101623.05, -85981.93, -94823.23, -131856.89, -6554.65, -2528.61, -6092.59, -2956.69, -83727.33, -88683.85, -81344.25, -112047.48, 0.000, 0.000, 0.000, 11:20:11.611
16, -3221.49, -8339.10, -6661.33, -7002.62, -101623.05, -85981.93, -94823.23, -131856.89, -3634.68, -5409.35, -6670.34, -5474.79, -81452.50, -89237.41, -81412.63, -112360.09, -0.026, 0.938, 0.292, 11:20:11.615
17, -10100.13, -4970.92, -6682.55, -6324.87, -102826.63, -85004.44, -95012.68, -131302.41, -3634.68, -5409.35, -6670.34, -5474.79, -81452.50, -89237.41, -81412.63, -112360.09, 0.000, 0.000, 0.000, 11:20:11.622
18, -10100.13, -4970.92, -6682.55, -6324.87, -102826.63, -85004.44, -95012.68, -131302.41, -7645.39, -1732.55, -5924.53, -2199.43, -84116.59, -88538.99, -81296.20, -111958.50, 0.000, 0.000, 0.000, 11:20:11.625
19, -3444.52, -8067.42, -6677.23, -6941.56, -101772.95, -85847.98, -94863.33, -131800.20, -7645.39, -1732.55, -5924.53, -2199.43, -84116.59, -88538.99, -81296.20, -111958.50, 0.000, 0.000, 0.000, 11:20:11.630
20, -3444.52, -8067.42, -6677.23, -6941.56, -101772.95, -85847.98, -94863.33, -131800.20, -2591.17, -6035.60, -6807.96, -6077.17, -81126.16, -89322.58, -81460.64, -112435.46, 0.000, 0.000, 0.000, 11:20:11.636
21, -9761.97, -5275.48, -6662.85, -6382.12, -102658.98, -85103.95, -94968.00, -131355.78, -2591.17, -6035.60, -6807.96, -6077.17, -81126.16, -89322.58, -81460.64, -112435.46, 0.000, 0.000, 0.000, 11:20:11.645
22, -9761.97, -5275.48, -6662.85, -6382.12, -102658.98, -85103.95, -94968.00, -131355.78, -8552.47, -1056.99, -5791.85, -1600.99, -84388.41, -88415.36, -81250.13, -111882.63, 0.000, 0.000, 0.000, 11:20:11.651
23, -3925.08, -7693.02, -6695.11, -6862.59, -101955.04, -85688.54, -94909.86, -131727.63, -8552.47, -1056.99, -5791.85, -1600.99, -84388.41, -88415.36, -81250.13, -111882.63, 0.000, 0.000, 0.000, 11:20:11.651
24, -3925.08, -7693.02, -6695.11, -6862.59, -101955.04, -85688.54, -94909.86, -131727.63, -1736.17, -6493.90, -6912.32, -6515.76, -80914.79, -89396.34, -81507.58, -112499.63, 0.000, 0.000, 0.000, 11:20:11.657
25, -9199.80, -5689.52, -6642.11, -6464.39, -102463.19, -85261.28, -94925.15, -131437.39, -1736.17, -6493.90, -6912.32, -6515.76, -80914.79, -89396.34, -81507.58, -112499.63, 0.000, 0.000, 0.000, 11:20:11.657
26, -9199.80, -5689.52, -6642.11, -6464.39, -102463.19, -85261.28, -94925.15, -131437.39, -9174.61, -610.65, -5687.42, -1173.04, -84515.72, -88383.53, -81211.91, -111836.41, -0.026, 0.946, 0.294, 11:20:11.660
27, -4435.32, -7217.85, -6696.54, -6775.26, -102146.30, -85582.95, -94957.13, -131668.13, -9174.61, -610.65, -5687.42, -1173.04, -84515.72, -88383.53, -81211.91, -111836.41, 0.000, 0.000, 0.000, 11:20:11.660
28, -4435.32, -7217.85, -6696.54, -6775.26, -102146.30, -85582.95, -94957.13, -131668.13, -1124.18, -6780.38, -6975.62, -6783.69, -80826.41, -89443.32, -81543.61, -112540.47, 0.000, 0.000, 0.000, 11:20:11.664
29, -8458.30, -6189.82, -6629.91, -6559.83, -102256.41, -85412.27, -94883.48, -131521.53, -1124.18, -6780.38, -6975.62, -6783.69, -80826.41, -89443.32, -81543.61, -112540.47, 0.000, 0.000, 0.000, 11:20:11.664
30, -8458.30, -6189.82, -6629.91, -6559.83, -102256.41, -85412.27, -94883.48, -131521.53, -9586.75, -379.71, -5636.98, -946.08, -84541.80, -88350.72, -81191.23, -111813.97, 0.000, 0.000, 0.000, 11:20:11.665
31, -5314.64, -6684.49, -6717.91, -6676.31, -102367.88, -85398.03, -95009.53, -131580.13, -9586.75, -379.71, -5636.98, -946.08, -84541.80, -88350.72, -81191.23, -111813.97, 0.000, 0.000, 0.000, 11:20:11.668
32, -5314.64, -6684.49, -6717.91, -6676.31, -102367.88, -85398.03, -95009.53, -131580.13, -847.22, -6856.91, -7003.90, -6885.05, -80882.09, -89428.84, -81571.99, -112557.16, 0.000, 0.000, 0.000, 11:20:11.668
33, -7587.21, -6742.60, -6622.46, -6660.31, -102049.59, -85558.16, -94843.88, -131606.67, -847.22, -6856.91, -7003.90, -6885.05, -80882.09, -89428.84, -81571.99, -112557.16, 0.000, 0.000, 0.000, 11:20:11.679
34, -7587.21, -6742.60, -6622.46, -6660.31, -102049.59, -85558.16, -94843.88, -131606.67, -9697.35, -352.62, -5628.48, -913.20, -84426.29, -88375.06, -81174.83, -111812.95, 0.000, 0.000, 0.000, 11:20:11.679
35, -6154.82, -6108.93, -6712.72, -6575.03, -102565.31, -85286.30, -95049.29, -131512.92, -9697.35, -352.62, -5628.48, -913.20, -84426.29, -88375.06, -81174.83, -111812.95, 0.000, 0.000, 0.000, 11:20:11.683
36, -6154.82, -6108.93, -6712.72, -6575.03, -102565.31, -85286.30, -95049.29, -131512.92, -818.07, -6769.40, -6972.89, -6804.30, -81032.52, -89429.44, -81578.26, -112548.47, -0.020, 0.944, 0.292, 11:20:11.683
37, -6578.01, -7277.44, -6606.68, -6761.40, -101845.85, -85736.04, -94806.13, -131701.55, -818.07, -6769.40, -6972.89, -6804.30, -81032.52, -89429.44, -81578.26, -112548.47, 0.000, 0.000, 0.000, 11:20:11.683
38, -6578.01, -7277.44, -6606.68, -6761.40, -101845.85, -85736.04, -94806.13, -131701.55, -9535.68, -601.89, -5658.68, -1079.79, -84201.41, -88431.73, -81173.84, -111837.20, 0.000, 0.000, 0.000, 11:20:11.687
39, -7162.97, -5582.59, -6726.71, -6475.41, -102761.83, -85109.94, -95087.13, -131425.44, -9535.68, -601.89, -5658.68, -1079.79, -84201.41, -88431.73, -81173.84, -111837.20, 0.000, 0.000, 0.000, 11:20:11.688
40, -7162.97, -5582.59, -6726.71, -6475.41, -102761.83, -85109.94, -95087.13, -131425.44, -1150.11, -6461.26, -6912.41, -6556.39, -81319.94, -89340.55, -81575.91, -112511.81, 0.000, 0.000, 0.000, 11:20:11.692
41, -5610.91, -7746.62, -6604.43, -6850.68, -101678.73, -85852.51, -94778.50, -131774.08, -1150.11, -6461.26, -6912.41, -6556.39, -81319.94, -89340.55, -81575.91, -112511.81, 0.000, 0.000, 0.000, 11:20:11.695
42, -5610.91, -7746.62, -6604.43, -6850.68, -101678.73, -85852.51, -94778.50, -131774.08, -9110.77, -1007.84, -5744.42, -1447.92, -83884.41, -88499.38, -81187.28, -111882.86, 0.000, 0.000, 0.000, 11:20:11.699
43, -8144.04, -5128.09, -6733.26, -6384.60, -102918.49, -84956.30, -95110.85, -131346.63, -9110.77, -1007.84, -5744.42, -1447.92, -83884.41, -88499.38, -81187.28, -111882.86, 0.000, 0.000, 0.000, 11:20:11.702
44, -8144.04, -5128.09, -6733.26, -6384.60, -102918.49, -84956.30, -95110.85, -131346.63, -1785.75, -5952.18, -6810.22, -6136.98, -81698.66, -89218.57, -81559.01, -112452.49, 0.000, 0.000, 0.000, 11:20:11.702
45, -4733.00, -8112.19, -6603.02, -6928.17, -101548.87, -85964.70, -94762.59, -131842.81, -1785.75, -5952.18, -6810.22, -6136.98, -81698.66, -89218.57, -81559.01, -112452.49, 0.000, 0.000, 0.000, 11:20:11.705
46, -4733.00, -8112.19, -6603.02, -6928.17, -101548.87, -85964.70, -94762.59, -131842.81, -8409.78, -1637.02, -5865.75, -2003.50, -83473.16, -88620.48, -81212.42, -111952.66, -0.014, 0.942, 0.290, 11:20:11.711
47, -8895.73, -4783.97, -6723.47, -6321.25, -103013.80, -84906.43, -95121.73, -131310.89, -8409.78, -1637.02, -5865.75, -2003.50, -83473.16, -88620.48, -81212.42, -111952.66, 0.000, 0.000, 0.000, 11:20:11.711
48, -8895.73, -4783.97, -6723.47, -6321.25, -103013.80, -84906.43, -95121.73, -131310.89, -2605.52, -5312.18, -6663.55, -5553.60, -82119.97, -89134.28, -81527.43, -112381.55, 0.000, 0.000, 0.000, 11:20:11.717
49, -3922.95, -8366.59, -6611.85, -6987.54, -101477.61, -86033.63, -94763.55, -131891.41, -2605.52, -5312.18, -6663.55, -5553.60, -82119.97, -89134.28, -81527.43, -112381.55, 0.000, 0.000, 0.000, 11:20:11.723
50, -3922.95, -8366.59, -6611.85, -6987.54, -101477.61, -86033.63, -94763.55, -131891.41, -7498.61, -2421.74, -6025.31, -2712.09, -83021.17, -88743.80, -81252.61, -112037.55, 0.000, 0.000, 0.000, 11:20:11.729
51, -9561.92, -4577.06, -6719.02, -6271.21, -103063.73, -84830.97, -95117.35, -131268.14, -7498.61, -2421.74, -6025.31, -2712.09, -83021.17, -88743.80, -81252.61, -112037.55, 0.000, 0.000, 0.000, 11:20:11.729
52, -9561.92, -4577.06, -6719.02, -6271.21, -103063.73, -84830.97, -95117.35, -131268.14, -3689.83, -4500.34, -6497.54, -4827.55, -82609.66, -88969.35, -81486.19, -112287.00, 0.000, 0.000, 0.000, 11:20:11.735
53, -3407.10, -8491.83, -6622.73, -7014.40, -101460.33, -86034.43, -94771.70, -131905.17, -3689.83, -4500.34, -6497.54, -4827.55, -82609.66, -88969.35, -81486.19, -112287.00, 0.000, 0.000, 0.000, 11:20:11.735
54, -3407.10, -8491.83, -6622.73, -7014.40, -101460.33, -86034.43, -94771.70, -131905.17, -6414.84, -3264.72, -6207.88, -3512.06, -82537.75, -88863.80, -81295.98, -112126.67, 0.000, 0.000, 0.000, 11:20:11.741
55, -9947.02, -4487.25, -6697.59, -6246.57, -103047.64, -84837.49, -95096.86, -131259.47, -6414.84, -3264.72, -6207.88, -3512.06, -82537.75, -88863.80, -81295.98, -112126.67, 0.000, 0.000, 0.000, 11:20:11.747
56, -9947.02, -4487.25, -6697.59, -6246.57, -103047.64, -84837.49, -95096.86, -131259.47, -4818.32, -3622.70, -6296.49, -4005.34, -83079.06, -88857.10, -81428.48, -112186.28, -0.022, 0.946, 0.286, 11:20:11.753
57, -2980.43, -8486.08, -6623.56, -7019.43, -101486.93, -86049.23, -94789.45, -131915.23, -4818.32, -3622.70, -6296.49, -4005.34, -83079.06, -88857.10, -81428.48, -112186.28, 0.000, 0.000, 0.000, 11:20:11.753
58, -2980.43, -8486.08, -6623.56, -7019.43, -101486.93, -86049.23, -94789.45, -131915.23, -5220.52, -4178.35, -6387.75, -4333.40, -82048.85, -89028.63, -81346.84, -112227.44, 0.000, 0.000, 0.000, 11:20:11.759
59, -10155.34, -4542.88, -6687.08, -6254.33, -102989.88, -84870.53, -95073.77, -131271.92, -5220.52, -4178.35, -6387.75, -4333.40, -82048.85, -89028.63, -81346.84, -112227.44, 0.000, 0.000, 0.000, 11:20:11.759
60, -10155.34, -4542.88, -6687.08, -6254.33, -102989.88, -84870.53, -95073.77, -131271.92, -6034.03, -2737.37, -6110.88, -3173.75, -83564.43, -88692.79, -81381.20, -112088.01, 0.000, 0.000, 0.000, 11:20:11.765
61, -2909.73, -8377.68, -6642.54, -6995.81, -101577.99, -85967.82, -94821.17, -131886.00, -6034.03, -2737.37, -6110.88, -3173.75, -83564.43, -88692.79, -81381.20, -112088.01, 0.000, 0.000, 0.000, 11:20:11.771
62, -2909.73, -8377.68, -6642.54, -6995.81, -101577.99, -85967.82, -94821.17, -131886.00, -4051.01, -4999.44, -6568.80, -5117.95, -81616.97, -89144.50, -81400.16, -112319.95, 0.000, 0.000, 0.000, 11:20:11.777
63, -10135.08, -4725.74, -6670.88, -6280.26, -102879.96, -84924.22, -95036.57, -131296.63, -4051.01, -4999.44, -6568.80, -5117.95, -81616.97, -89144.50, -81400.16, -112319.95, 0.000, 0.000, 0.000, 11:20:11.777
64, -10135.08, -4725.74, -6670.88, -6280.26, -102879.96, -84924.22, -95036.57, -131296.63, -7195.23, -1883.89, -5943.26, -2397.69, -83983.97, -88534.83, -81329.81, -111992.36, 0.000, 0.000, 0.000, 11:20:11.783
65, -3133.42, -8157.72, -6663.08, -6949.49, -101714.25, -85854.05, -94861.78, -131839.14, -7195.23, -1883.89, -5943.26, -2397.69, -83983.97, -88534.83, -81329.81, -111992.36, 0.000, 0.000, 0.000, 11:20:11.783
66, -3133.42, -8157.72, -6663.08, -6949.49, -101714.25, -85854.05, -94861.78, -131839.14, -2953.31, -5719.74, -6726.18, -5795.20, -81252.52, -89267.52, -81455.03, -112409.98, -0.014, 0.950, 0.294, 11:20:11.789
67, -9871.45, -5016.74, -6653.76, -6341.06, -102730.34, -85053.93, -95000.25, -131360.97, -2953.31, -5719.74, -6726.18, -5795.20, -81252.52, -89267.52, -81455.03, -112409.98, 0.000, 0.000, 0.000, 11:20:11.795
68, -9871.45, -5016.74, -6653.76, -6341.06, -102730.34, -85053.93, -95000.25, -131360.97, -8143.88, -1182.85, -5788.63, -1727.72, -84287.82, -88462.48, -81280.73, -111919.12, 0.000, 0.000, 0.000, 11:20:11.795
69, -3415.99, -7818.53, -6671.57, -6887.15, -101876.41, -85768.70, -94906.02, -131794.39, -8143.88, -1182.85, -5788.63, -1727.72, -84287.82, -88462.48, -81280.73, -111919.12, 0.000, 0.000, 0.000, 11:20:11.801
70, -3415.99, -7818.53, -6671.57, -6887.15, -101876.41, -85768.70, -94906.02, -131794.39, -2006.81, -6280.95, -6852.58, -6316.60, -80996.39, -89357.87, -81503.64, -112480.79, 0.000, 0.000, 0.000, 11:20:11.806
71, -9406.33, -5424.21, -6638.24, -6413.81, -102549.15, -85177.11, -94955.30, -131425.28, -2006.81, -6280.95, -6852.58, -6316.60, -80996.39, -89357.87, -81503.64, -112480.79, 0.000, 0.000, 0.000, 11:20:11.811
72, -9406.33, -5424.21, -6638.24, -6413.81, -102549.15, -85177.11, -94955.30, -131425.28, -8926.19, -660.27, -5676.78, -1230.08, -84495.16, -88368.98, -81239.05, -111856.41, 0.000, 0.000, 0.000, 11:20:11.811
73, -4074.59, -7388.61, -6690.01, -6799.29, -102074.63, -85599.76, -94952.53, -131713.81, -8926.19, -660.27, -5676.78, -1230.08, -84495.16, -88368.98, -81239.05, -111856.41, 0.000, 0.000, 0.000, 11:20:11.817
74, -4074.59, -7388.61, -6690.01, -6799.29, -102074.63, -85599.76, -94952.53, -131713.81, -1312.70, -6639.92, -6934.67, -6657.56, -80862.20, -89412.85, -81541.95, -112528.94, 0.000, 0.000, 0.000, 11:20:11.823
75, -8727.84, -5899.70, -6618.35, -6503.60, -102344.14, -85343.67, -94909.64, -131511.64, -1312.70, -6639.92, -6934.67, -6657.56, -80862.20, -89412.85, -81541.95, -112528.94, -0.014, 0.948, 0.296, 11:20:11.823
76, -8727.84, -5899.70, -6618.35, -6503.60, -102344.14, -85343.67, -94909.64, -131511.64, -9407.76, -353.81, -5589.84, -906.14, -84553.20, -88358.55, -81201.63, -111819.36, 0.000, 0.000, 0.000, 11:20:11.829
77, -4724.40, -6853.72, -6687.82, -6704.29, -102273.76, -85492.67, -94996.14, -131650.63, -9407.76, -353.81, -5589.84, -906.14, -84553.20, -88358.55, -81201.63, -111819.36, 0.000, 0.000, 0.000, 11:20:11.834
78, -4724.40, -6853.72, -6687.82, -6704.29, -102273.76, -85492.67, -94996.14, -131650.63, -872.01, -6823.36, -6971.17, -6825.53, -80848.11, -89446.29, -81568.29, -112554.15, 0.000, 0.000, 0.000, 11:20:11.839
79, -7873.85, -6447.32, -6606.95, -6604.36, -102134.80, -85503.96, -94867.55, -131601.64, -872.01, -6823.36, -6971.17, -6825.53, -80848.11, -89446.29, -81568.29, -112554.15, 0.000, 0.000, 0.000, 11:20:11.839
80, -7873.85, -6447.32, -6606.95, -6604.36, -102134.80, -85503.96, -94867.55, -131601.64, -9659.28, -265.36, -5556.35, -784.52, -84505.64, -88350.32, -81184.93, -111809.14, 0.000, 0.000, 0.000, 11:20:11.845
81, -5677.16, -6285.09, -6705.34, -6600.67, -102493.97, -85304.47, -95043.50, -131560.94, -9659.28, -265.36, -5556.35, -784.52, -84505.64, -88350.32, -81184.93, -111809.14, 0.000, 0.000, 0.000, 11:20:11.851
82, -5677.16, -6285.09, -6705.34, -6600.67, -102493.97, -85304.47, -95043.50, -131560.94, -762.75, -6781.99, -6971.26, -6820.21, -80976.23, -89407.69, -81585.38, -112553.01, 0.000, 0.000, 0.000, 11:20:11.851
83, -6903.69, -6998.02, -6597.39, -6702.60, -101929.23, -85646.02, -94827.20, -131686.45, -762.75, -6781.99, -6971.26, -6820.21, -80976.23, -89407.69, -81585.38, -112553.01, 0.000, 0.000, 0.000, 11:20:11.857
84, -6903.69, -6998.02, -6597.39, -6702.60, -101929.23, -85646.02, -94827.20, -131686.45, -9598.38, -380.16, -5564.96, -868.19, -84314.87, -88391.58, -81172.34, -111819.88, 0.000, 0.000, 0.000, 11:20:11.862
85, -6544.28, -5688.07, -6693.79, -6499.26, -102676.22, -85202.01, -95075.87, -131497.98, -9598.38, -380.16, -5564.96, -868.19, -84314.87, -88391.58, -81172.34, -111819.88, -0.014, 0.944, 0.296, 11:20:11.868
86, -6544.28, -5688.07, -6693.79, -6499.26, -102676.22, -85202.01, -95075.87, -131497.98, -897.38, -6579.08, -6909.62, -6628.66, -81186.02, -89392.71, -81580.51, -112528.96, 0.000, 0.000, 0.000, 11:20:11.868
87, -5808.37, -7496.98, -6581.83, -6800.83, -101738.16, -85822.13, -94794.77, -131783.36, -897.38, -6579.08, -6909.62, -6628.66, -81186.02, -89392.71, -81580.51, -112528.96, 0.000, 0.000, 0.000, 11:20:11.874
88, -5808.37, -7496.98, -6581.83, -6800.83, -101738.16, -85822.13, -94794.77, -131783.36, -9261.85, -763.54, -5609.97, -1154.74, -84019.13, -88473.32, -81177.95, -111858.63, 0.000, 0.000, 0.000, 11:20:11.880
89, -7537.54, -5179.70, -6702.30, -6406.43, -102845.47, -85044.79, -95105.24, -131421.09, -9261.85, -763.54, -5609.97, -1154.74, -84019.13, -88473.32, -81177.95, -111858.63, 0.000, 0.000, 0.000, 11:20:11.880
90, -7537.54, -5179.70, -6702.30, -6406.43, -102845.47, -85044.79, -95105.24, -131421.09, -1387.40, -6156.61, -6820.66, -6274.00, -81519.49, -89287.41, -81568.69, -112479.74, 0.000, 0.000, 0.000, 11:20:11.886
91, -4788.53, -7915.20, -6581.38, -6883.11, -101592.68, -85926.95, -94774.73, -131853.66, -1387.40, -6156.61, -6820.66, -6274.00, -81519.49, -89287.41, -81568.69, -112479.74, 0.000, 0.000, 0.000, 11:20:11.893
92, -4788.53, -7915.20, -6581.38, -6883.11, -101592.68, -85926.95, -94774.73, -131853.66, -8675.27, -1285.61, -5718.02, -1632.86, -83649.92, -88558.97, -81201.41, -111919.52, 0.000, 0.000, 0.000, 11:20:11.895
93, -8469.90, -4747.20, -6706.31, -6328.02, -102975.53, -84915.34, -95124.30, -131357.91, -8675.27, -1285.61, -5718.02, -1632.86, -83649.92, -88558.97, -81201.41, -111919.52, 0.000, 0.000, 0.000, 11:20:11.895
94, -8469.90, -4747.20, -6706.31, -6328.02, -102975.53, -84915.34, -95124.30, -131357.91, -2171.14, -5527.45, -6689.63, -5741.20, -81936.80, -89149.46, -81543.97, -112409.53, 0.000, 0.000, 0.000, 11:20:11.902
95, -3885.02, -8210.49, -6578.95, -6947.17, -101489.88, -86017.42, -94765.70, -131914.22, -2171.14, -5527.45, -6689.63, -5741.20, -81936.80, -89149.46, -81543.97, -112409.53, -0.022, 0.944, 0.292, 11:20:11.903
96, -3885.02, -8210.49, -6578.95, -6947.17, -101489.88, -86017.42, -94765.70, -131914.22, -7821.93, -1997.75, -5853.32, -2277.62, -83198.45, -88688.73, -81232.67, -111998.71, 0.000, 0.000, 0.000, 11:20:11.911
97, -9130.98, -4402.04, -6687.13, -6273.13, -103035.39, -84886.96, -95124.64, -131334.53, -7821.93, -1997.75, -5853.32, -2277.62, -83198.45, -88688.73, -81232.67, -111998.71, 0.000, 0.000, 0.000, 11:20:11.912
98, -9130.98, -4402.04, -6687.13, -6273.13, -103035.39, -84886.96, -95124.64, -131334.53, -3094.26, -4765.59, -6503.75, -5034.69, -82373.95, -89052.14, -81498.73, -112324.55, 0.000, 0.000, 0.000, 11:20:11.918
99, -3036.46, -8384.38, -6579.68, -6988.07, -101440.70, -86068.98, -94768.30, -131954.13, -3094.26, -4765.59, -6503.75, -5034.69, -82373.95, -89052.14, -81498.73, -112324.55, 0.000, 0.000, 0.000, 11:20:11.928
100, -3036.46, -8384.38, -6579.68, -6988.07, -101440.70, -86068.98, -94768.30, -131954.13, -6771.80, -2837.00, -6023.42, -3048.53, -82711.24, -88817.88, -81272.98, -112087.11, 0.000, 0.000, 0.000, 11:20:11.929
101, -9680.83, -4205.03, -6677.11, -6238.68, -103048.34, -84844.41, -95112.75, -131313.64, -6771.80, -2837.00, -6023.42, -3048.53, -82711.24, -88817.88, -81272.98, -112087.11, 0.000, 0.000, 0.000, 11:20:11.929
102, -9680.83, -4205.03, -6677.11, -6238.68, -103048.34, -84844.41, -95112.75, -131313.64, -4233.89, -3871.12, -6309.41, -4224.21, -82872.55, -88882.45, -81454.90, -112229.05, 0.000, 0.000, 0.000, 11:20:11.936
103, -2500.11, -8429.83, -6591.53, -7002.71, -101453.91, -86052.83, -94785.88, -131967.67, -4233.89, -3871.12, -6309.41, -4224.21, -82872.55, -88882.45, -81454.90, -112229.05, 0.000, 0.000, 0.000, 11:20:11.936
104, -2500.11, -8429.83, -6591.53, -7002.71, -101453.91, -86052.83, -94785.88, -131967.67, -5600.43, -3688.37, -6216.38, -3871.66, -82219.39, -88938.28, -81320.16, -112181.79, 0.000, 0.000, 0.000, 11:20:11.940
105, -9946.06, -4096.67, -6647.39, -6226.88, -102989.91, -84876.81, -95081.26, -131326.53, -5600.43, -3688.37, -6216.38, -3871.66, -82219.39, -88938.28, -81320.16, -112181.79, -0.018, 0.944, 0.294, 11:20:11.947
106, -9946.06, -4096.67, -6647.39, -6226.88, -102989.91, -84876.81, -95081.26, -131326.53, -5361.47, -2947.66, -6068.19, -3341.74, -83309.95, -88761.48, -81384.22, -112120.26, 0.000, 0.000, 0.000, 11:20:11.948
107, -2019.90, -8327.48, -6577.85, -6984.50, -101491.83, -86047.55, -94798.41, -131972.47, -5361.47, -2947.66, -6068.19, -3341.74, -83309.95, -88761.48, -81384.22, -112120.26, 0.000, 0.000, 0.000, 11:20:11.956
108, -2019.90, -8327.48, -6577.85, -6984.50, -101491.83, -86047.55, -94798.41, -131972.47, -4352.26, -4565.28, -6388.89, -4670.67, -81727.61, -89090.09, -81361.91, -112274.22, 0.000, 0.000, 0.000, 11:20:11.956
109, -9999.59, -4115.69, -6623.07, -6245.52, -102886.44, -84938.30, -95044.77, -131366.45, -4352.26, -4565.28, -6388.89, -4670.67, -81727.61, -89090.09, -81361.91, -112274.22, 0.000, 0.000, 0.000, 11:20:11.963
110, -9999.59, -4115.69, -6623.07, -6245.52, -102886.44, -84938.30, -95044.77, -131366.45, -6522.71, -2024.35, -5843.95, -2485.40, -83745.23, -88592.70, -81328.59, -112021.04, 0.000, 0.000, 0.000, 11:20:11.964
111, -1898.31, -8113.39, -6587.71, -6944.60, -101594.71, -85946.14, -94828.77, -131955.59, -6522.71, -2024.35, -5843.95, -2485.40, -83745.23, -88592.70, -81328.59, -112021.04, 0.000, 0.000, 0.000, 11:20:11.969
112, -1898.31, -8113.39, -6587.71, -6944.60, -101594.71, -85946.14, -94828.77, -131955.59, -3159.89, -5298.68, -6555.79, -5391.71, -81310.34, -89181.05, -81405.12, -112357.52, 0.000, 0.000, 0.000, 11:20:11.976
113, -9786.55, -4200.67, -6590.97, -6280.86, -102728.08, -85012.20, -94993.10, -131435.83, -3159.89, -5298.68, -6555.79, -5391.71, -81310.34, -89181.05, -81405.12, -112357.52, 0.000, 0.000, 0.000, 11:20:11.977
114, -9786.55, -4200.67, -6590.97, -6280.86, -102728.08, -85012.20, -94993.10, -131435.83, -7558.13, -1120.29, -5617.28, -1687.02, -84079.88, -88423.19, -81263.09, -111924.34, 0.000, 0.000, 0.000, 11:20:11.982
115, -2020.15, -7730.80, -6582.39, -6873.88, -101714.70, -85812.34, -94853.73, -131944.52, -7558.13, -1120.29, -5617.28, -1687.02, -84079.88, -88423.19, -81263.09, -111924.34, -0.024, 0.944, 0.296, 11:20:11.982
116, -2020.15, -7730.80, -6582.39, -6873.88, -101714.70, -85812.34, -94853.73, -131944.52, -2025.85, -5854.55, -6666.88, -5946.03, -80948.09, -89245.13, -81429.52, -112421.13, 0.000, 0.000, 0.000, 11:20:11.989
117, -9237.69, -4191.85, -6530.67, -6331.94, -102498.19, -85157.73, -94922.06, -131568.06, -2025.85, -5854.55, -6666.88, -5946.03, -80948.09, -89245.13, -81429.52, -112421.13, 0.000, 0.000, 0.000, 11:20:11.994
118, -9237.69, -4191.85, -6530.67, -6331.94, -102498.19, -85157.73, -94922.06, -131568.06, -8258.50, -287.64, -5317.39, -934.10, -84238.85, -88313.98, -81177.87, -111835.98, 0.000, 0.000, 0.000, 11:20:11.995
119, -2134.68, -7069.63, -6526.87, -6770.68, -101806.88, -85725.87, -94854.03, -131965.88, -8258.50, -287.64, -5317.39, -934.10, -84238.85, -88313.98, -81177.87, -111835.98, 0.000, 0.000, 0.000, 11:20:12.002
120, -2134.68, -7069.63, -6526.87, -6770.68, -101806.88, -85725.87, -94854.03, -131965.88, -986.07, -6195.12, -6718.04, -6300.42, -80653.63, -89253.38, -81423.31, -112448.60, 0.000, 0.000, 0.000, 11:20:12.007
121, -8366.24, -4231.36, -6451.79, -6386.18, -102210.57, -85314.62, -94830.09, -131731.47, -986.07, -6195.12, -6718.04, -6300.42, -80653.63, -89253.38, -81423.31, -112448.60, 0.000, 0.000, 0.000, 11:20:12.008
122, -8366.24, -4231.36, -6451.79, -6386.18, -102210.57, -85314.62, -94830.09, -131731.47, -8764.32, 410.49, -4987.34, -337.20, -84267.99, -88175.88, -81092.46, -111756.33, 0.000, 0.000, 0.000, 11:20:12.013
123, -2771.17, -6121.32, -6480.02, -6646.40, -101920.30, -85577.54, -94855.37, -131990.63, -8764.32, 410.49, -4987.34, -337.20, -84267.99, -88175.88, -81092.46, -111756.33, 0.000, 0.000, 0.000, 11:20:12.022
124, -2771.17, -6121.32, -6480.02, -6646.40, -101920.30, -85577.54, -94855.37, -131990.63, -226.69, -6295.03, -6727.29, -6475.03, -80485.81, -89198.05, -81406.15, -112451.47, 0.000, 0.000, 0.000, 11:20:12.023
125, -7206.49, -4601.87, -6370.72, -6449.93, -101900.59, -85501.12, -94737.48, -131940.39, -226.69, -6295.03, -6727.29, -6475.03, -80485.81, -89198.05, -81406.15, -112451.47, -0.022, 0.942, 0.290, 11:20:12.023
126, -7206.49, -4601.87, -6370.72, -6449.93, -101900.59, -85501.12, -94737.48, -131940.39, -8942.06, 803.39, -4662.19, 66.92, -84138.34, -88107.58, -81012.29, -111702.80, 0.000, 0.000, 0.000, 11:20:12.028
127, -3486.36, -4961.98, -6406.95, -6515.94, -102017.38, -85518.04, -94848.08, -132054.27, -8942.06, 803.39, -4662.19, 66.92, -84138.34, -88107.58, -81012.29, -111702.80, 0.000, 0.000, 0.000, 11:20:12.036
128, -3486.36, -4961.98, -6406.95, -6515.94, -102017.38, -85518.04, -94848.08, -132054.27, 294.60, -6216.40, -6670.86, -6444.68, -80417.38, -89154.71, -81369.31, -112428.09, 0.000, 0.000, 0.000, 11:20:12.036
129, -5838.86, -5201.74, -6287.99, -6523.51, -101588.61, -85742.72, -94652.33, -132172.23, 294.60, -6216.40, -6670.86, -6444.68, -80417.38, -89154.71, -81369.31, -112428.09, 0.000, 0.000, 0.000, 11:20:12.042
130, -5838.86, -5201.74, -6287.99, -6523.51, -101588.61, -85742.72, -94652.33, -132172.23, -8908.20, 906.34, -4439.28, 162.74, -83917.34, -88076.27, -80959.54, -111680.04, 0.000, 0.000, 0.000, 11:20:12.043
131, -4601.53, -3868.53, -6375.30, -6389.58, -102154.17, -85400.02, -94856.87, -132097.08, -8908.20, 906.34, -4439.28, 162.74, -83917.34, -88076.27, -80959.54, -111680.04, 0.000, 0.000, 0.000, 11:20:12.048
132, -4601.53, -3868.53, -6375.30, -6389.58, -102154.17, -85400.02, -94856.87, -132097.08, 310.04, -5882.89, -6590.50, -6247.83, -80534.43, -89050.02, -81343.49, -112389.59, 0.000, 0.000, 0.000, 11:20:12.055
133, -4505.89, -5900.35, -6238.89, -6600.31, -101330.09, -85945.78, -94592.91, -132389.20, 310.04, -5882.89, -6590.50, -6247.83, -80534.43, -89050.02, -81343.49, -112389.59, 0.000, 0.000, 0.000, 11:20:12.056
134, -4505.89, -5900.35, -6238.89, -6600.31, -101330.09, -85945.78, -94592.91, -132389.20, -8606.58, 700.62, -4379.67, -19.83, -83615.88, -88079.13, -80932.27, -111687.70, -0.018, 0.940, 0.288, 11:20:12.061
135, -5673.10, -2874.97, -6355.20, -6275.52, -102291.50, -85297.20, -94869.34, -132142.88, -8606.58, 700.62, -4379.67, -19.83, -83615.88, -88079.13, -80932.27, -111687.70, 0.000, 0.000, 0.000, 11:20:12.067
136, -5673.10, -2874.97, -6355.20, -6275.52, -102291.50, -85297.20, -94869.34, -132142.88, -20.07, -5298.73, -6450.87, -5849.16, -80778.27, -88920.80, -81312.27, -112332.45, 0.000, 0.000, 0.000, 11:20:12.067
137, -3190.44, -6518.13, -6194.41, -6672.69, -101108.63, -86160.38, -94550.98, -132613.08, -20.07, -5298.73, -6450.87, -5849.16, -80778.27, -88920.80, -81312.27, -112332.45, 0.000, 0.000, 0.000, 11:20:12.077
138, -3190.44, -6518.13, -6194.41, -6672.69, -101108.63, -86160.38, -94550.98, -132613.08, -7994.39, 169.85, -4405.26, -436.80, -83211.34, -88149.20, -80919.33, -111721.50, 0.000, 0.000, 0.000, 11:20:12.078
139, -6684.09, -2006.47, -6313.50, -6175.92, -102383.77, -85301.81, -94867.28, -132231.70, -7994.39, 169.85, -4405.26, -436.80, -83211.34, -88149.20, -80919.33, -111721.50, 0.000, 0.000, 0.000, 11:20:12.083
140, -6684.09, -2006.47, -6313.50, -6175.92, -102383.77, -85301.81, -94867.28, -132231.70, -594.51, -4616.46, -6216.42, -5229.82, -81085.80, -88815.16, -81256.37, -112248.27, 0.000, 0.000, 0.000, 11:20:12.083
141, -1984.34, -6982.33, -6153.03, -6722.49, -100934.20, -86339.09, -94520.92, -132815.83, -594.51, -4616.46, -6216.42, -5229.82, -81085.80, -88815.16, -81256.37, -112248.27, 0.000, 0.000, 0.000, 11:20:12.089
142, -1984.34, -6982.33, -6153.03, -6722.49, -100934.20, -86339.09, -94520.92, -132815.83, -7132.04, -537.34, -4547.78, -1075.81, -82742.40, -88230.34, -80919.62, -111769.27, 0.000, 0.000, 0.000, 11:20:12.094
143, -7602.97, -1410.46, -6293.22, -6096.46, -102448.52, -85297.45, -94860.35, -132319.13, -7132.04, -537.34, -4547.78, -1075.81, -82742.40, -88230.34, -80919.62, -111769.27, 0.000, 0.000, 0.000, 11:20:12.094
144, -7602.97, -1410.46, -6293.22, -6096.46, -102448.52, -85297.45, -94860.35, -132319.13, -1552.08, -3707.66, -5935.28, -4483.33, -81502.26, -88653.20, -81204.13, -112150.79, -0.018, 0.944, 0.290, 11:20:12.100
145, -989.69, -7286.96, -6131.31, -6757.04, -100831.45, -86487.39, -94518.53, -133007.88, -1552.08, -3707.66, -5935.28, -4483.33, -81502.26, -88653.20, -81204.13, -112150.79, 0.000, 0.000, 0.000, 11:20:12.106
146, -989.69, -7286.96, -6131.31, -6757.04, -100831.45, -86487.39, -94518.53, -133007.88, -6086.25, -1370.79, -4792.37, -1856.20, -82235.38, -88334.47, -80940.20, -111840.93, 0.000, 0.000, 0.000, 11:20:12.106
147, -8292.00, -1055.87, -6262.24, -6049.95, -102454.63, -85406.68, -94845.20, -132452.34, -6086.25, -1370.79, -4792.37, -1856.20, -82235.38, -88334.47, -80940.20, -111840.93, 0.000, 0.000, 0.000, 11:20:12.112
148, -8292.00, -1055.87, -6262.24, -6049.95, -102454.63, -85406.68, -94845.20, -132452.34, -2534.71, -2859.73, -5579.60, -3587.16, -81938.01, -88549.79, -81140.90, -112051.23, 0.000, 0.000, 0.000, 11:20:12.118
149, -223.50, -7414.07, -6107.86, -6774.25, -100784.33, -86651.32, -94533.39, -133177.13, -2534.71, -2859.73, -5579.60, -3587.16, -81938.01, -88549.79, -81140.90, -112051.23, 0.000, 0.000, 0.000, 11:20:12.118
150, -223.50, -7414.07, -6107.86, -6774.25, -100784.33, -86651.32, -94533.39, -133177.13, -4893.65, -2310.88, -5092.06, -2720.36, -81692.65, -88479.09, -80964.97, -111921.20, 0.000, 0.000, 0.000, 11:20:12.124
151, -8770.47, -982.34, -6238.60, -6023.08, -102418.10, -85505.08, -94819.23, -132571.13, -4893.65, -2310.88, -5092.06, -2720.36, -81692.65, -88479.09, -80964.97, -111921.20, 0.000, 0.000, 0.000, 11:20:12.130
152, -8770.47, -982.34, -6238.60, -6023.08, -102418.10, -85505.08, -94819.23, -132571.13, -3814.75, -1838.99, -5204.42, -2690.46, -82431.35, -88374.19, -81077.73, -111939.59, 0.000, 0.000, 0.000, 11:20:12.130
153, 156.93, -7367.13, -6107.44, -6762.05, -100815.98, -86697.77, -94564.91, -133294.16, -3814.75, -1838.99, -5204.42, -2690.46, -82431.35, -88374.19, -81077.73, -111939.59, 0.000, 0.000, 0.000, 11:20:12.136
154, 156.93, -7367.13, -6107.44, -6762.05, -100815.98, -86697.77, -94564.91, -133294.16, -3685.53, -3197.46, -5438.43, -3595.01, -81190.43, -88586.82, -81005.47, -112008.86, -0.018, 0.940, 0.282, 11:20:12.142
155, -8968.15, -1152.93, -6222.21, -6029.11, -102339.41, -85629.13, -94795.63, -132712.06, -3685.53, -3197.46, -5438.43, -3595.01, -81190.43, -88586.82, -81005.47, -112008.86, 0.000, 0.000, 0.000, 11:20:12.142
156, -8968.15, -1152.93, -6222.21, -6029.11, -102339.41, -85629.13, -94795.63, -132712.06, -5051.54, -837.43, -4848.63, -1799.70, -82911.45, -88206.33, -81019.70, -111837.09, 0.000, 0.000, 0.000, 11:20:12.148
157, 201.55, -7153.52, -6119.77, -6730.00, -100912.60, -86697.67, -94612.34, -133390.92, -5051.54, -837.43, -4848.63, -1799.70, -82911.45, -88206.33, -81019.70, -111837.09, 0.000, 0.000, 0.000, 11:20:12.154
158, 201.55, -7153.52, -6119.77, -6730.00, -100912.60, -86697.67, -94612.34, -133390.92, -2497.29, -4043.12, -5768.02, -4421.11, -80733.16, -88699.48, -81048.54, -112094.33, 0.000, 0.000, 0.000, 11:20:12.160
159, -8850.15, -1562.05, -6197.07, -6062.69, -102210.27, -85808.88, -94771.44, -132880.45, -2497.29, -4043.12, -5768.02, -4421.11, -80733.16, -88699.48, -81048.54, -112094.33, 0.000, 0.000, 0.000, 11:20:12.160
160, -8850.15, -1562.05, -6197.07, -6062.69, -102210.27, -85808.88, -94771.44, -132880.45, -6182.65, -84.47, -4537.09, -974.20, -83302.76, -88110.59, -80960.81, -111749.84, 0.000, 0.000, 0.000, 11:20:12.166
161, -61.13, -6772.11, -6128.33, -6680.58, -101047.18, -86689.80, -94662.92, -133458.17, -6182.65, -84.47, -4537.09, -974.20, -83302.76, -88110.59, -80960.81, -111749.84, 0.000, 0.000, 0.000, 11:20:12.166
162, -61.13, -6772.11, -6128.33, -6680.58, -101047.18, -86689.80, -94662.92, -133458.17, -1401.92, -4758.08, -6032.67, -5123.38, -80362.37, -88775.18, -81091.37, -112168.85, 0.000, 0.000, 0.000, 11:20:12.172
163, -8441.18, -2092.46, -6173.53, -6113.47, -102040.45, -85948.29, -94740.99, -133009.64, -1401.92, -4758.08, -6032.67, -5123.38, -80362.37, -88775.18, -81091.37, -112168.85, 0.000, 0.000, 0.000, 11:20:12.178
164, -8441.18, -2092.46, -6173.53, -6113.47, -102040.45, -85948.29, -94740.99, -133009.64, -7240.36, 701.31, -4266.68, -285.10, -83619.51, -87972.95, -80907.37, -111668.82, -0.016, 0.948, 0.290, 11:20:12.178
165, -655.49, -6214.32, -6151.94, -6601.99, -101228.70, -86562.63, -94708.72, -133435.47, -7240.36, 701.31, -4266.68, -285.10, -83619.51, -87972.95, -80907.37, -111668.82, 0.000, 0.000, 0.000, 11:20:12.184
166, -655.49, -6214.32, -6151.94, -6601.99, -101228.70, -86562.63, -94708.72, -133435.47, -525.69, -5288.82, -6240.92, -5666.95, -80120.25, -88809.76, -81132.59, -112225.24, 0.000, 0.000, 0.000, 11:20:12.190
167, -7776.55, -2816.66, -6153.52, -6181.75, -101846.59, -86080.23, -94712.07, -133113.58, -525.69, -5288.82, -6240.92, -5666.95, -80120.25, -88809.76, -81132.59, -112225.24, 0.000, 0.000, 0.000, 11:20:12.190
168, -7776.55, -2816.66, -6153.52, -6181.75, -101846.59, -86080.23, -94712.07, -133113.58, -8005.57, 1123.06, -4107.33, 218.85, -83791.75, -87909.97, -80859.96, -111611.55, 0.000, 0.000, 0.000, 11:20:12.196
169, -1518.80, -5516.37, -6163.65, -6514.21, -101426.16, -86460.68, -94751.08, -133392.22, -8005.57, 1123.06, -4107.33, 218.85, -83791.75, -87909.97, -80859.96, -111611.55, 0.000, 0.000, 0.000, 11:20:12.201
170, -1518.80, -5516.37, -6163.65, -6514.21, -101426.16, -86460.68, -94751.08, -133392.22, 156.60, -5655.30, -6366.31, -6011.28, -79998.08, -88851.27, -81165.24, -112265.52, 0.000, 0.000, 0.000, 11:20:12.206
171, -6879.91, -3670.49, -6132.22, -6265.95, -101635.30, -86223.44, -94684.11, -133203.39, 156.60, -5655.30, -6366.31, -6011.28, -79998.08, -88851.27, -81165.24, -112265.52, 0.000, 0.000, 0.000, 11:20:12.206
172, -6879.91, -3670.49, -6132.22, -6265.95, -101635.30, -86223.44, -94684.11, -133203.39, -8604.21, 1387.26, -4056.77, 442.65, -83871.16, -87856.23, -80837.31, -111582.52, 0.000, 0.000, 0.000, 11:20:12.212
173, -2642.96, -4762.15, -6208.80, -6420.90, -101672.27, -86263.07, -94802.02, -133302.80, -8604.21, 1387.26, -4056.77, 442.65, -83871.16, -87856.23, -80837.31, -111582.52, 0.000, 0.000, 0.000, 11:20:12.217
174, -2642.96, -4762.15, -6208.80, -6420.90, -101672.27, -86263.07, -94802.02, -133302.80, 420.26, -5753.03, -6440.79, -6171.50, -80051.14, -88828.29, -81202.50, -112290.31, -0.016, 0.942, 0.288, 11:20:12.222
175, -5863.58, -4582.71, -6130.01, -6361.31, -101435.79, -86328.16, -94666.56, -133279.05, 420.26, -5753.03, -6440.79, -6171.50, -80051.14, -88828.29, -81202.50, -112290.31, 0.000, 0.000, 0.000, 11:20:12.222
176, -5863.58, -4582.71, -6130.01, -6361.31, -101435.79, -86328.16, -94666.56, -133279.05, -8834.53, 1296.83, -4111.40, 472.00, -83802.63, -87859.95, -80824.58, -111580.06, 0.000, 0.000, 0.000, 11:20:12.228
177, -3777.36, -3967.90, -6224.96, -6322.35, -101891.05, -86127.20, -94838.70, -133217.55, -8834.53, 1296.83, -4111.40, 472.00, -83802.63, -87859.95, -80824.58, -111580.06, 0.000, 0.000, 0.000, 11:20:12.234
178, -3777.36, -3967.90, -6224.96, -6322.35, -101891.05, -86127.20, -94838.70, -133217.55, 479.44, -5682.37, -6421.14, -6096.06, -80193.27, -88818.79, -81211.35, -112283.80, 0.000, 0.000, 0.000, 11:20:12.234
179, -4689.15, -5438.18, -6105.71, -6447.90, -101223.27, -86458.38, -94640.88, -133348.30, 479.44, -5682.37, -6421.14, -6096.06, -80193.27, -88818.79, -81211.35, -112283.80, 0.000, 0.000, 0.000, 11:20:12.240
180, -4689.15, -5438.18, -6105.71, -6447.90, -101223.27, -86458.38, -94640.88, -133348.30, -8771.50, 1011.26, -4206.40, 233.98, -83605.16, -87883.57, -80816.48, -111590.56, 0.000, 0.000, 0.000, 11:20:12.246
181, -5113.07, -3233.60, -6255.94, -6220.11, -102105.11, -85926.67, -94865.96, -133106.09, -8771.50, 1011.26, -4206.40, 233.98, -83605.16, -87883.57, -80816.48, -111590.56, 0.000, 0.000, 0.000, 11:20:12.246
182, -5113.07, -3233.60, -6255.94, -6220.11, -102105.11, -85926.67, -94865.96, -133106.09, 103.85, -5321.59, -6359.83, -5854.03, -80480.65, -88736.02, -81217.20, -112256.54, 0.000, 0.000, 0.000, 11:20:12.252
183, -3555.49, -6208.04, -6107.55, -6537.42, -101055.50, -86553.13, -94634.76, -133414.89, 103.85, -5321.59, -6359.83, -5854.03, -80480.65, -88736.02, -81217.20, -112256.54, 0.000, 0.000, 0.000, 11:20:12.257
184, -3555.49, -6208.04, -6107.55, -6537.42, -101055.50, -86553.13, -94634.76, -133414.89, -8420.64, 514.25, -4389.35, -201.19, -83320.33, -87938.06, -80837.43, -111637.84, -0.012, 0.944, 0.290, 11:20:12.262
185, -6312.47, -2583.01, -6289.83, -6135.73, -102297.25, -85764.31, -94894.35, -133026.92, -8420.64, 514.25, -4389.35, -201.19, -83320.33, -87938.06, -80837.43, -111637.84, 0.000, 0.000, 0.000, 11:20:12.262
186, -6312.47, -2583.01, -6289.83, -6135.73, -102297.25, -85764.31, -94894.35, -133026.92, -583.56, -4718.56, -6238.04, -5411.49, -80874.17, -88628.35, -81212.22, -112210.45, 0.000, 0.000, 0.000, 11:20:12.268
187, -2439.13, -6799.69, -6105.89, -6614.26, -100921.12, -86655.74, -94636.03, -133493.70, -583.56, -4718.56, -6238.04, -5411.49, -80874.17, -88628.35, -81212.22, -112210.45, 0.000, 0.000, 0.000, 11:20:12.274
188, -2439.13, -6799.69, -6105.89, -6614.26, -100921.12, -86655.74, -94636.03, -133493.70, -7746.02, -217.04, -4603.27, -816.58, -82921.48, -88039.98, -80862.28, -111701.56, 0.000, 0.000, 0.000, 11:20:12.274
189, -7347.85, -2061.68, -6286.41, -6063.31, -102409.92, -85707.54, -94900.16, -132992.14, -7746.02, -217.04, -4603.27, -816.58, -82921.48, -88039.98, -80862.28, -111701.56, 0.000, 0.000, 0.000, 11:20:12.280
190, -7347.85, -2061.68, -6286.41, -6063.31, -102409.92, -85707.54, -94900.16, -132992.14, -1393.77, -4073.76, -6028.35, -4761.95, -81295.10, -88549.07, -81175.84, -112137.58, 0.000, 0.000, 0.000, 11:20:12.285
191, -1462.14, -7202.42, -6099.43, -6662.90, -100827.06, -86726.93, -94635.18, -133551.22, -1393.77, -4073.76, -6028.35, -4761.95, -81295.10, -88549.07, -81175.84, -112137.58, 0.000, 0.000, 0.000, 11:20:12.290
192, -1462.14, -7202.42, -6099.43, -6662.90, -100827.06, -86726.93, -94635.18, -133551.22, -6842.27, -1061.04, -4854.13, -1582.95, -82455.67, -88143.32, -80891.81, -111772.35, 0.000, 0.000, 0.000, 11:20:12.290
193, -8232.64, -1740.42, -6290.79, -6007.10, -102478.74, -85637.02, -94895.29, -132957.30, -6842.27, -1061.04, -4854.13, -1582.95, -82455.67, -88143.32, -80891.81, -111772.35, -0.016, 0.948, 0.284, 11:20:12.296
194, -8232.64, -1740.42, -6290.79, -6007.10, -102478.74, -85637.02, -94895.29, -132957.30, -2545.62, -3192.92, -5786.71, -4012.74, -81808.14, -88404.92, -81142.73, -112054.88, 0.000, 0.000, 0.000, 11:20:12.301
195, -725.31, -7439.24, -6114.57, -6697.28, -100807.75, -86754.38, -94653.51, -133589.36, -2545.62, -3192.92, -5786.71, -4012.74, -81808.14, -88404.92, -81142.73, -112054.88, 0.000, 0.000, 0.000, 11:20:12.307
196, -725.31, -7439.24, -6114.57, -6697.28, -100807.75, -86754.38, -94653.51, -133589.36, -5785.59, -1968.45, -5168.95, -2443.72, -81969.08, -88255.68, -80940.31, -111863.15, 0.000, 0.000, 0.000, 11:20:12.307
197, -8807.62, -1634.29, -6279.43, -5980.83, -102482.52, -85657.16, -94884.20, -132958.09, -5785.59, -1968.45, -5168.95, -2443.72, -81969.08, -88255.68, -80940.31, -111863.15, 0.000, 0.000, 0.000, 11:20:12.314
198, -8807.62, -1634.29, -6279.43, -5980.83, -102482.52, -85657.16, -94884.20, -132958.09, -3676.10, -2397.76, -5495.47, -3138.01, -82302.56, -88315.61, -81091.92, -111964.47, 0.000, 0.000, 0.000, 11:20:12.314
199, -201.86, -7496.33, -6116.49, -6706.42, -100829.21, -86794.99, -94672.76, -133609.14, -3676.10, -2397.76, -5495.47, -3138.01, -82302.56, -88315.61, -81091.92, -111964.47, 0.000, 0.000, 0.000, 11:20:12.322
200, -201.86, -7496.33, -6116.49, -6706.42, -100829.21, -86794.99, -94672.76, -133609.14, -4603.70, -2937.31, -5475.66, -3330.03, -81457.98, -88413.28, -80989.89, -111960.13, 0.000, 0.000, 0.000, 11:20:12.322
201, -9161.93, -1731.86, -6272.68, -5980.92, -102437.28, -85693.37, -94867.38, -132965.61, -4603.70, -2937.31, -5475.66, -3330.03, -81457.98, -88413.28, -80989.89, -111960.13, 0.000, 0.000, 0.000, 11:20:12.330
202, -9161.93, -1731.86, -6272.68, -5980.92, -102437.28, -85693.37, -94867.38, -132965.61, -4967.09, -1458.76, -5206.95, -2298.52, -82820.77, -88169.74, -81047.31, -111871.57, 0.000, 0.000, 0.000, 11:20:12.330
203, -103.49, -7392.64, -6141.61, -6690.61, -100921.90, -86747.70, -94702.13, -133591.98, -4967.09, -1458.76, -5206.95, -2298.52, -82820.77, -88169.74, -81047.31, -111871.57, -0.020, 0.954, 0.288, 11:20:12.339
204, -103.49, -7392.64, -6141.61, -6690.61, -100921.90, -86747.70, -94702.13, -133591.98, -3428.02, -3814.77, -5781.99, -4183.35, -81002.20, -88526.25, -81044.92, -112052.89, 0.000, 0.000, 0.000, 11:20:12.340
205, -9193.00, -2000.66, -6259.94, -6001.26, -102339.41, -85751.59, -94842.02, -132990.19, -3428.02, -3814.77, -5781.99, -4183.35, -81002.20, -88526.25, -81044.92, -112052.89, 0.000, 0.000, 0.000, 11:20:12.347
206, -9193.00, -2000.66, -6259.94, -6001.26, -102339.41, -85751.59, -94842.02, -132990.19, -6219.75, -560.20, -4952.50, -1488.16, -83284.63, -88028.79, -81003.73, -111784.87, 0.000, 0.000, 0.000, 11:20:12.347
207, -268.04, -7134.39, -6172.03, -6653.09, -101061.73, -86663.27, -94735.54, -133553.03, -6219.75, -560.20, -4952.50, -1488.16, -83284.63, -88028.79, -81003.73, -111784.87, 0.000, 0.000, 0.000, 11:20:12.355
208, -268.04, -7134.39, -6172.03, -6653.09, -101061.73, -86663.27, -94735.54, -133553.03, -2310.30, -4597.15, -6039.42, -4935.53, -80604.84, -88640.58, -81097.98, -112140.15, 0.000, 0.000, 0.000, 11:20:12.355
209, -8912.38, -2426.35, -6235.58, -6046.57, -102190.49, -85866.95, -94812.45, -133041.83, -2310.30, -4597.15, -6039.42, -4935.53, -80604.84, -88640.58, -81097.98, -112140.15, 0.000, 0.000, 0.000, 11:20:12.361
210, -8912.38, -2426.35, -6235.58, -6046.57, -102190.49, -85866.95, -94812.45, -133041.83, -7237.27, 82.46, -4723.82, -756.76, -83629.70, -87958.60, -80954.04, -111709.30, 0.000, 0.000, 0.000, 11:20:12.366
211, -724.02, -6711.13, -6190.16, -6595.69, -101228.50, -86592.53, -94768.69, -133507.84, -7237.27, 82.46, -4723.82, -756.76, -83629.70, -87958.60, -80954.04, -111709.30, 0.000, 0.000, 0.000, 11:20:12.366
212, -724.02, -6711.13, -6190.16, -6595.69, -101228.50, -86592.53, -94768.69, -133507.84, -1332.48, -5247.72, -6245.86, -5546.79, -80320.90, -88732.40, -81150.66, -112215.32, 0.000, 0.000, 0.000, 11:20:12.373
213, -8377.90, -3041.65, -6221.05, -6113.49, -102017.36, -85978.69, -94784.52, -133103.63, -1332.48, -5247.72, -6245.86, -5546.79, -80320.90, -88732.40, -81150.66, -112215.32, -0.022, 0.950, 0.292, 11:20:12.373
214, -8377.90, -3041.65, -6221.05, -6113.49, -102017.36, -85978.69, -94784.52, -133103.63, -8174.52, 674.02, -4577.97, -223.72, -83890.70, -87866.29, -80918.90, -111650.11, 0.000, 0.000, 0.000, 11:20:12.379
215, -1529.28, -6157.99, -6227.02, -6516.58, -101440.98, -86431.94, -94805.13, -133429.38, -8174.52, 674.02, -4577.97, -223.72, -83890.70, -87866.29, -80918.90, -111650.11, 0.000, 0.000, 0.000, 11:20:12.381
216, -1529.28, -6157.99, -6227.02, -6516.58, -101440.98, -86431.94, -94805.13, -133429.38, -611.83, -5667.58, -6392.08, -5972.52, -80171.01, -88774.17, -81197.94, -112270.88, 0.000, 0.000, 0.000, 11:20:12.387
217, -7592.73, -3764.75, -6206.34, -6194.94, -101820.41, -86100.59, -94757.20, -133179.11, -611.83, -5667.58, -6392.08, -5972.52, -80171.01, -88774.17, -81197.94, -112270.88, 0.000, 0.000, 0.000, 11:20:12.396
218, -7592.73, -3764.75, -6206.34, -6194.94, -101820.41, -86100.59, -94757.20, -133179.11, -8767.47, 938.21, -4484.88, 140.73, -83994.05, -87842.76, -80886.45, -111613.27, 0.000, 0.000, 0.000, 11:20:12.396
219, -2425.88, -5456.73, -6241.84, -6428.36, -101653.45, -86328.76, -94840.17, -133366.50, -8767.47, 938.21, -4484.88, 140.73, -83994.05, -87842.76, -80886.45, -111613.27, 0.000, 0.000, 0.000, 11:20:12.407
220, -2425.88, -5456.73, -6241.84, -6428.36, -101653.45, -86328.76, -94840.17, -133366.50, -105.25, -5917.09, -6459.83, -6192.04, -80128.85, -88826.34, -81228.23, -112303.92, 0.000, 0.000, 0.000, 11:20:12.407
221, -6585.58, -4577.46, -6180.17, -6285.42, -101599.41, -86260.23, -94727.70, -133269.23, -105.25, -5917.09, -6459.83, -6192.04, -80128.85, -88826.34, -81228.23, -112303.92, 0.000, 0.000, 0.000, 11:20:12.407
222, -6585.58, -4577.46, -6180.17, -6285.42, -101599.41, -86260.23, -94727.70, -133269.23, -9124.36, 1023.73, -4464.94, 233.84, -83978.70, -87828.96, -80868.41, -111597.61, 0.000, 0.000, 0.000, 11:20:12.414
223, -3662.31, -4733.18, -6276.28, -6327.87, -101889.10, -86138.66, -94875.04, -133270.75, -9124.36, 1023.73, -4464.94, 233.84, -83978.70, -87828.96, -80868.41, -111597.61, -0.014, 0.950, 0.290, 11:20:12.414
224, -3662.31, -4733.18, -6276.28, -6327.87, -101889.10, -86138.66, -94875.04, -133270.75, 12.61, -5894.24, -6480.46, -6226.95, -80241.13, -88797.53, -81250.60, -112309.45, 0.000, 0.000, 0.000, 11:20:12.420
225, -5480.04, -5399.42, -6166.11, -6376.64, -101390.99, -86382.09, -94703.82, -133351.67, 12.61, -5894.24, -6480.46, -6226.95, -80241.13, -88797.53, -81250.60, -112309.45, 0.000, 0.000, 0.000, 11:20:12.426
226, -5480.04, -5399.42, -6166.11, -6376.64, -101390.99, -86382.09, -94703.82, -133351.67, -9182.01, 886.34, -4524.78, 125.80, -83840.41, -87840.56, -80864.18, -111606.23, 0.000, 0.000, 0.000, 11:20:12.426
227, -4872.64, -4008.43, -6310.08, -6229.12, -102117.49, -85957.59, -94909.28, -133181.88, -9182.01, 886.34, -4524.78, 125.80, -83840.41, -87840.56, -80864.18, -111606.23, 0.000, 0.000, 0.000, 11:20:12.434
228, -4872.64, -4008.43, -6310.08, -6229.12, -102117.49, -85957.59, -94909.28, -133181.88, -196.02, -5638.79, -6448.03, -6066.53, -80480.49, -88744.29, -81264.93, -112297.53, 0.000, 0.000, 0.000, 11:20:12.435
229, -4301.53, -6147.40, -6153.64, -6472.15, -101199.62, -86527.71, -94691.09, -133447.16, -196.02, -5638.79, -6448.03, -6066.53, -80480.49, -88744.29, -81264.93, -112297.53, 0.000, 0.000, 0.000, 11:20:12.446
230, -4301.53, -6147.40, -6153.64, -6472.15, -101199.62, -86527.71, -94691.09, -133447.16, -8902.10, 448.31, -4633.07, -193.05, -83565.75, -87917.92, -80872.01, -111643.63, 0.000, 0.000, 0.000, 11:20:12.446
231, -6047.35, -3337.41, -6315.46, -6138.91, -102292.53, -85862.73, -94930.56, -133123.14, -8902.10, 448.31, -4633.07, -193.05, -83565.75, -87917.92, -80872.01, -111643.63, 0.000, 0.000, 0.000, 11:20:12.446
232, -6047.35, -3337.41, -6315.46, -6138.91, -102292.53, -85862.73, -94930.56, -133123.14, -615.43, -5244.37, -6342.64, -5702.00, -80792.63, -88696.13, -81253.22, -112257.19, 0.000, 0.000, 0.000, 11:20:12.452
233, -3149.85, -6761.92, -6144.54, -6552.41, -101040.43, -86635.36, -94680.84, -133522.08, -615.43, -5244.37, -6342.64, -5702.00, -80792.63, -88696.13, -81253.22, -112257.19, -0.020, 0.950, 0.290, 11:20:12.458
234, -3149.85, -6761.92, -6144.54, -6552.41, -101040.43, -86635.36, -94680.84, -133522.08, -8355.82, -149.18, -4787.39, -709.96, -83205.51, -87999.71, -80895.48, -111700.78, 0.000, 0.000, 0.000, 11:20:12.458
235, -7177.86, -2791.51, -6336.99, -6063.74, -102446.58, -85736.15, -94949.56, -133060.58, -8355.82, -149.18, -4787.39, -709.96, -83205.51, -87999.71, -80895.48, -111700.78, 0.000, 0.000, 0.000, 11:20:12.464
236, -7177.86, -2791.51, -6336.99, -6063.74, -102446.58, -85736.15, -94949.56, -133060.58, -1424.05, -4575.45, -6200.49, -5170.56, -81224.63, -88582.59, -81240.54, -112201.93, 0.000, 0.000, 0.000, 11:20:12.469
237, -2115.68, -7209.00, -6146.44, -6618.66, -100934.44, -86709.12, -94683.15, -133585.17, -1424.05, -4575.45, -6200.49, -5170.56, -81224.63, -88582.59, -81240.54, -112201.93, 0.000, 0.000, 0.000, 11:20:12.469
238, -2115.68, -7209.00, -6146.44, -6618.66, -100934.44, -86709.12, -94683.15, -133585.17, -7541.46, -908.69, -4989.67, -1392.45, -82764.20, -88095.53, -80926.55, -111772.51, 0.000, 0.000, 0.000, 11:20:12.475
239, -8043.90, -2364.64, -6325.12, -6001.49, -102521.95, -85697.77, -94947.99, -133031.63, -7541.46, -908.69, -4989.67, -1392.45, -82764.20, -88095.53, -80926.55, -111772.51, 0.000, 0.000, 0.000, 11:20:12.480
240, -8043.90, -2364.64, -6325.12, -6001.49, -102521.95, -85697.77, -94947.99, -133031.63, -2337.17, -3867.54, -5978.69, -4445.23, -81670.63, -88501.48, -81197.89, -112122.31, 0.000, 0.000, 0.000, 11:20:12.485
241, -1198.46, -7470.29, -6133.74, -6658.41, -100865.69, -86788.24, -94686.10, -133638.13, -2337.17, -3867.54, -5978.69, -4445.23, -81670.63, -88501.48, -81197.89, -112122.31, 0.000, 0.000, 0.000, 11:20:12.485
242, -1198.46, -7470.29, -6133.74, -6658.41, -100865.69, -86788.24, -94686.10, -133638.13, -6501.63, -1794.96, -5207.42, -2188.77, -82254.15, -88231.79, -80959.63, -111853.31, 0.000, 0.000, 0.000, 11:20:12.491
243, -8773.44, -2123.13, -6317.14, -5958.10, -102547.45, -85654.72, -94935.57, -133007.06, -6501.63, -1794.96, -5207.42, -2188.77, -82254.15, -88231.79, -80959.63, -111853.31, -0.026, 0.946, 0.286, 11:20:12.497
244, -8773.44, -2123.13, -6317.14, -5958.10, -102547.45, -85654.72, -94935.57, -133007.06, -3501.83, -2953.11, -5727.25, -3639.40, -82184.23, -88348.95, -81152.77, -112027.27, 0.000, 0.000, 0.000, 11:20:12.497
245, -627.01, -7576.79, -6140.56, -6671.55, -100868.75, -86785.20, -94700.80, -133657.09, -3501.83, -2953.11, -5727.25, -3639.40, -82184.23, -88348.95, -81152.77, -112027.27, 0.000, 0.000, 0.000, 11:20:12.503
246, -627.01, -7576.79, -6140.56, -6671.55, -100868.75, -86785.20, -94700.80, -133657.09, -5358.07, -2688.89, -5475.93, -3044.42, -81749.78, -88348.58, -81008.04, -111945.55, 0.000, 0.000, 0.000, 11:20:12.508
247, -9197.27, -2056.18, -6310.72, -5945.94, -102524.85, -85657.63, -94923.38, -133014.41, -5358.07, -2688.89, -5475.93, -3044.42, -81749.78, -88348.58, -81008.04, -111945.55, 0.000, 0.000, 0.000, 11:20:12.513
248, -9197.27, -2056.18, -6310.72, -5945.94, -102524.85, -85657.63, -94923.38, -133014.41, -4760.54, -1996.79, -5462.72, -2774.03, -82709.43, -88196.70, -81110.74, -111935.63, 0.000, 0.000, 0.000, 11:20:12.513
249, -310.82, -7527.49, -6155.74, -6664.71, -100930.77, -86753.94, -94727.74, -133660.95, -4760.54, -1996.79, -5462.72, -2774.03, -82709.43, -88196.70, -81110.74, -111935.63, 0.000, 0.000, 0.000, 11:20:12.519
250, -310.82, -7527.49, -6155.74, -6664.71, -100930.77, -86753.94, -94727.74, -133660.95, -4150.05, -3577.91, -5740.29, -3892.76, -81250.78, -88482.84, -81057.21, -112039.73, 0.000, 0.000, 0.000, 11:20:12.524
251, -9313.03, -2164.39, -6283.12, -5957.30, -102431.83, -85736.57, -94899.20, -133054.39, -4150.05, -3577.91, -5740.29, -3892.76, -81250.78, -88482.84, -81057.21, -112039.73, 0.000, 0.000, 0.000, 11:20:12.529
252, -9313.03, -2164.39, -6283.12, -5957.30, -102431.83, -85736.57, -94899.20, -133054.39, -5894.45, -1178.81, -5177.45, -1911.16, -83153.91, -88103.38, -81053.62, -111842.98, -0.020, 0.944, 0.288, 11:20:12.534
253, -315.74, -7318.68, -6163.52, -6632.03, -101031.05, -86714.62, -94754.31, -133648.81, -5894.45, -1178.81, -5177.45, -1911.16, -83153.91, -88103.38, -81053.62, -111842.98, 0.000, 0.000, 0.000, 11:20:12.534
254, -315.74, -7318.68, -6163.52, -6632.03, -101031.05, -86714.62, -94754.31, -133648.81, -2974.95, -4398.02, -5985.84, -4677.28, -80813.42, -88592.39, -81105.11, -112124.20, 0.000, 0.000, 0.000, 11:20:12.540
255, -9156.48, -2489.18, -6258.06, -5986.49, -102296.31, -85809.20, -94866.68, -133097.03, -2974.95, -4398.02, -5985.84, -4677.28, -80813.42, -88592.39, -81105.11, -112124.20, 0.000, 0.000, 0.000, 11:20:12.546
0, -9156.48, -2489.18, -6258.06, -5986.49, -102296.31, -85809.20, -94866.68, -133097.03, -7051.73, -358.07, -4947.04, -1152.84, -83559.05, -87972.41, -81005.94, -111757.60, 0.000, 0.000, 0.000, 11:20:12.546
1, -659.82, -6978.10, -6192.33, -6580.20, -101192.22, -86605.36, -94792.11, -133607.72, -7051.73, -358.07, -4947.04, -1152.84, -83559.05, -87972.41, -81005.94, -111757.60, 0.000, 0.000, 0.000, 11:20:12.552
2, -659.82, -6978.10, -6192.33, -6580.20, -101192.22, -86605.36, -94792.11, -133607.72, -1926.85, -5089.49, -6191.41, -5338.76, -80472.63, -88698.52, -81158.66, -112207.01, 0.000, 0.000, 0.000, 11:20:12.557
3, -8704.82, -2959.66, -6233.32, -6048.16, -102126.26, -85944.40, -94841.63, -133176.50, -1926.85, -5089.49, -6191.41, -5338.76, -80472.63, -88698.52, -81158.66, -112207.01, 0.000, 0.000, 0.000, 11:20:12.563
4, -8704.82, -2959.66, -6233.32, -6048.16, -102126.26, -85944.40, -94841.63, -133176.50, -7945.93, 195.29, -4749.46, -505.17, -83832.16, -87922.46, -80959.91, -111693.34, 0.000, 0.000, 0.000, 11:20:12.563
5, -1217.83, -6473.40, -6205.38, -6511.98, -101371.17, -86530.38, -94828.59, -133569.23, -7945.93, 195.29, -4749.46, -505.17, -83832.16, -87922.46, -80959.91, -111693.34, 0.000, 0.000, 0.000, 11:20:12.569
6, -1217.83, -6473.40, -6205.38, -6511.98, -101371.17, -86530.38, -94828.59, -133569.23, -1046.91, -5618.20, -6342.42, -5829.13, -80246.60, -88776.84, -81202.19, -112268.02, -0.016, 0.946, 0.290, 11:20:12.569
7, -8003.22, -3604.62, -6207.91, -6119.82, -101927.20, -86071.60, -94809.13, -133253.77, -1046.91, -5618.20, -6342.42, -5829.13, -80246.60, -88776.84, -81202.19, -112268.02, 0.000, 0.000, 0.000, 11:20:12.575
8, -8003.22, -3604.62, -6207.91, -6119.82, -101927.20, -86071.60, -94809.13, -133253.77, -8693.24, 653.74, -4626.65, -83.98, -84007.53, -87849.73, -80923.64, -111641.53, 0.000, 0.000, 0.000, 11:20:12.580
9, -2173.48, -5856.56, -6238.17, -6423.29, -101592.52, -86365.59, -94866.43, -133492.17, -8693.24, 653.74, -4626.65, -83.98, -84007.53, -87849.73, -80923.64, -111641.53, 0.000, 0.000, 0.000, 11:20:12.585
10, -2173.48, -5856.56, -6238.17, -6423.29, -101592.52, -86365.59, -94866.43, -133492.17, -477.05, -5906.31, -6441.79, -6135.13, -80168.22, -88800.04, -81240.27, -112307.86, 0.000, 0.000, 0.000, 11:20:12.590
11, -7096.63, -4346.32, -6187.77, -6205.05, -101715.34, -86204.95, -94779.98, -133339.75, -477.05, -5906.31, -6441.79, -6135.13, -80168.22, -88800.04, -81240.27, -112307.86, 0.000, 0.000, 0.000, 11:20:12.590
12, -7096.63, -4346.32, -6187.77, -6205.05, -101715.34, -86204.95, -94779.98, -133339.75, -9112.87, 786.40, -4561.01, 160.82, -84026.80, -87848.74, -80894.76, -111616.59, 0.000, 0.000, 0.000, 11:20:12.596
13, -3114.20, -5116.31, -6246.24, -6327.98, -101804.81, -86270.58, -94899.76, -133434.23, -9112.87, 786.40, -4561.01, 160.82, -84026.80, -87848.74, -80894.76, -111616.59, 0.000, 0.000, 0.000, 11:20:12.601
14, -3114.20, -5116.31, -6246.24, -6327.98, -101804.81, -86270.58, -94899.76, -133434.23, -148.28, -6028.51, -6463.70, -6229.10, -80193.77, -88836.29, -81256.68, -112321.18, 0.000, 0.000, 0.000, 11:20:12.601
15, -5991.16, -5128.23, -6154.78, -6295.44, -101486.57, -86377.93, -94747.97, -133437.66, -148.28, -6028.51, -6463.70, -6229.10, -80193.77, -88836.29, -81256.68, -112321.18, 0.000, 0.000, 0.000, 11:20:12.607
16, -5991.16, -5128.23, -6154.78, -6295.44, -101486.57, -86377.93, -94747.97, -133437.66, -9269.58, 740.22, -4550.12, 144.62, -83925.79, -87862.63, -80878.91, -111612.11, -0.016, 0.942, 0.286, 11:20:12.612
17, -4387.11, -4377.41, -6275.52, -6226.15, -102033.59, -86097.84, -94931.45, -133347.03, -9269.58, 740.22, -4550.12, 144.62, -83925.79, -87862.63, -80878.91, -111612.11, 0.000, 0.000, 0.000, 11:20:12.617
18, -4387.11, -4377.41, -6275.52, -6226.15, -102033.59, -86097.84, -94931.45, -133347.03, -193.19, -5885.24, -6449.28, -6148.67, -80380.49, -88794.07, -81270.65, -112312.88, 0.000, 0.000, 0.000, 11:20:12.617
19, -4837.72, -5887.85, -6143.89, -6390.41, -101289.25, -86511.71, -94730.45, -133528.92, -193.19, -5885.24, -6449.28, -6148.67, -80380.49, -88794.07, -81270.65, -112312.88, 0.000, 0.000, 0.000, 11:20:12.623
20, -4837.72, -5887.85, -6143.89, -6390.41, -101289.25, -86511.71, -94730.45, -133528.92, -9142.15, 480.07, -4621.38, -74.63, -83712.84, -87901.83, -80884.01, -111638.58, 0.000, 0.000, 0.000, 11:20:12.628
21, -5602.33, -3680.24, -6306.30, -6134.23, -102245.48, -85942.63, -94962.92, -133272.89, -9142.15, 480.07, -4621.38, -74.63, -83712.84, -87901.83, -80884.01, -111638.58, 0.000, 0.000, 0.000, 11:20:12.633
22, -5602.33, -3680.24, -6306.30, -6134.23, -102245.48, -85942.63, -94962.92, -133272.89, -570.98, -5521.28, -6387.46, -5879.22, -80683.58, -88726.50, -81277.84, -112288.95, 0.000, 0.000, 0.000, 11:20:12.633
23, -3660.66, -6545.46, -6134.23, -6482.99, -101117.03, -86657.55, -94723.07, -133626.02, -570.98, -5521.28, -6387.46, -5879.22, -80683.58, -88726.50, -81277.84, -112288.95, 0.000, 0.000, 0.000, 11:20:12.639
24, -3660.66, -6545.46, -6134.23, -6482.99, -101117.03, -86657.55, -94723.07, -133626.02, -8693.31, -51.88, -4740.89, -497.57, -83376.38, -87997.05, -80899.55, -111688.98, 0.000, 0.000, 0.000, 11:20:12.645
25, -6697.21, -3065.32, -6306.57, -6052.43, -102398.28, -85875.69, -94979.24, -133227.33, -8693.31, -51.88, -4740.89, -497.57, -83376.38, -87997.05, -80899.55, -111688.98, 0.000, 0.000, 0.000, 11:20:12.651
26, -6697.21, -3065.32, -6306.57, -6052.43, -102398.28, -85875.69, -94979.24, -133227.33, -1148.86, -5033.88, -6246.57, -5401.39, -81045.68, -88671.80, -81255.88, -112235.39, -0.022, 0.950, 0.290, 11:20:12.651
27, -2551.30, -7053.83, -6124.47, -6552.64, -100982.65, -86756.70, -94715.07, -133693.56, -1148.86, -5033.88, -6246.57, -5401.39, -81045.68, -88671.80, -81255.88, -112235.39, 0.000, 0.000, 0.000, 11:20:12.657
28, -2551.30, -7053.83, -6124.47, -6552.64, -100982.65, -86756.70, -94715.07, -133693.56, -7990.70, -741.76, -4914.03, -1116.27, -82963.03, -88093.23, -80925.56, -111753.38, 0.000, 0.000, 0.000, 11:20:12.657
29, -7753.19, -2629.62, -6320.49, -5985.33, -102518.33, -85771.95, -94988.20, -133173.44, -7990.70, -741.76, -4914.03, -1116.27, -82963.03, -88093.23, -80925.56, -111753.38, 0.000, 0.000, 0.000, 11:20:12.663
30, -7753.19, -2629.62, -6320.49, -5985.33, -102518.33, -85771.95, -94988.20, -133173.44, -2084.75, -4298.22, -6072.39, -4778.42, -81512.70, -88543.37, -81230.66, -112164.23, 0.000, 0.000, 0.000, 11:20:12.669
31, -1629.84, -7392.64, -6124.69, -6600.22, -100905.45, -86800.54, -94716.41, -133734.86, -2084.75, -4298.22, -6072.39, -4778.42, -81512.70, -88543.37, -81230.66, -112164.23, 0.000, 0.000, 0.000, 11:20:12.669
32, -1629.84, -7392.64, -6124.69, -6600.22, -100905.45, -86800.54, -94716.41, -133734.86, -7064.07, -1549.51, -5138.80, -1874.35, -82489.65, -88194.44, -80960.79, -111830.40, 0.000, 0.000, 0.000, 11:20:12.678
33, -8487.63, -2322.08, -6307.19, -5937.85, -102563.16, -85751.30, -94981.30, -133151.89, -7064.07, -1549.51, -5138.80, -1874.35, -82489.65, -88194.44, -80960.79, -111830.40, 0.000, 0.000, 0.000, 11:20:12.678
34, -8487.63, -2322.08, -6307.19, -5937.85, -102563.16, -85751.30, -94981.30, -133151.89, -3106.09, -3548.92, -5835.17, -3985.27, -81990.73, -88462.81, -81188.06, -112082.69, 0.000, 0.000, 0.000, 11:20:12.687
35, -845.72, -7562.87, -6124.80, -6634.85, -100881.98, -86860.77, -94732.59, -133776.80, -3106.09, -3548.92, -5835.17, -3985.27, -81990.73, -88462.81, -81188.06, -112082.69, 0.000, 0.000, 0.000, 11:20:12.688
36, -845.72, -7562.87, -6124.80, -6634.85, -100881.98, -86860.77, -94732.59, -133776.80, -5947.96, -2464.41, -5383.71, -2712.47, -81975.94, -88347.03, -81007.41, -111925.87, -0.024, 0.948, 0.288, 11:20:12.694
37, -9076.39, -2205.13, -6305.67, -5919.12, -102563.81, -85732.73, -94971.28, -133141.06, -5947.96, -2464.41, -5383.71, -2712.47, -81975.94, -88347.03, -81007.41, -111925.87, 0.000, 0.000, 0.000, 11:20:12.694
38, -9076.39, -2205.13, -6305.67, -5919.12, -102563.81, -85732.73, -94971.28, -133141.06, -4322.25, -2625.84, -5585.01, -3161.23, -82523.35, -88315.16, -81150.06, -111994.26, 0.000, 0.000, 0.000, 11:20:12.700
39, -474.19, -7584.97, -6144.32, -6640.32, -100927.24, -86825.33, -94756.69, -133776.23, -4322.25, -2625.84, -5585.01, -3161.23, -82523.35, -88315.16, -81150.06, -111994.26, 0.000, 0.000, 0.000, 11:20:12.700
40, -474.19, -7584.97, -6144.32, -6640.32, -100927.24, -86825.33, -94756.69, -133776.23, -4773.21, -3348.02, -5653.23, -3575.09, -81482.14, -88458.45, -81058.42, -112018.87, 0.000, 0.000, 0.000, 11:20:12.708
41, -9334.89, -2226.68, -6290.92, -5916.31, -102501.48, -85739.52, -94946.23, -133142.75, -4773.21, -3348.02, -5653.23, -3575.09, -81482.14, -88458.45, -81058.42, -112018.87, 0.000, 0.000, 0.000, 11:20:12.713
42, -9334.89, -2226.68, -6290.92, -5916.31, -102501.48, -85739.52, -94946.23, -133142.75, -5580.96, -1682.30, -5318.37, -2296.71, -83026.65, -88154.59, -81098.79, -111895.35, 0.000, 0.000, 0.000, 11:20:12.713
43, -349.78, -7442.37, -6162.02, -6616.88, -101019.20, -86756.23, -94782.34, -133752.08, -5580.96, -1682.30, -5318.37, -2296.71, -83026.65, -88154.59, -81098.79, -111895.35, 0.000, 0.000, 0.000, 11:20:12.718
44, -349.78, -7442.37, -6162.02, -6616.88, -101019.20, -86756.23, -94782.34, -133752.08, -3580.57, -4188.98, -5907.03, -4390.91, -81019.70, -88584.25, -81110.66, -112112.62, 0.000, 0.000, 0.000, 11:20:12.724
45, -9279.93, -2432.00, -6262.91, -5942.93, -102379.70, -85825.66, -94916.57, -133183.22, -3580.57, -4188.98, -5907.03, -4390.91, -81019.70, -88584.25, -81110.66, -112112.62, 0.000, 0.000, 0.000, 11:20:12.724
46, -9279.93, -2432.00, -6262.91, -5942.93, -102379.70, -85825.66, -94916.57, -133183.22, -6673.85, -905.92, -5056.46, -1474.66, -83430.95, -88065.05, -81039.48, -111804.88, -0.020, 0.948, 0.290, 11:20:12.731
47, -506.87, -7139.79, -6165.64, -6566.99, -101138.98, -86693.74, -94803.87, -133719.38, -6673.85, -905.92, -5056.46, -1474.66, -83430.95, -88065.05, -81039.48, -111804.88, 0.000, 0.000, 0.000, 11:20:12.740
48, -506.87, -7139.79, -6165.64, -6566.99, -101138.98, -86693.74, -94803.87, -133719.38, -2462.13, -4920.00, -6112.42, -5094.12, -80628.66, -88676.61, -81149.77, -112183.73, 0.000, 0.000, 0.000, 11:20:12.741
49, -8952.86, -2812.56, -6232.27, -5982.24, -102214.84, -85909.55, -94875.93, -133230.41, -2462.13, -4920.00, -6112.42, -5094.12, -80628.66, -88676.61, -81149.77, -112183.73, 0.000, 0.000, 0.000, 11:20:12.742
50, -8952.86, -2812.56, -6232.27, -5982.24, -102214.84, -85909.55, -94875.93, -133230.41, -7714.23, -164.58, -4847.65, -789.40, -83773.77, -87945.62, -80991.97, -111726.64, 0.000, 0.000, 0.000, 11:20:12.751
51, -1045.28, -6710.66, -6194.85, -6502.68, -101317.66, -86565.58, -94838.63, -133667.42, -7714.23, -164.58, -4847.65, -789.40, -83773.77, -87945.62, -80991.97, -111726.64, 0.000, 0.000, 0.000, 11:20:12.751
52, -1045.28, -6710.66, -6194.85, -6502.68, -101317.66, -86565.58, -94838.63, -133667.42, -1525.95, -5480.76, -6287.10, -5654.01, -80361.67, -88743.09, -81198.16, -112252.55, 0.000, 0.000, 0.000, 11:20:12.753
53, -8358.21, -3342.37, -6208.78, -6050.17, -102026.44, -86032.80, -94844.46, -133308.59, -1525.95, -5480.76, -6287.10, -5654.01, -80361.67, -88743.09, -81198.16, -112252.55, 0.000, 0.000, 0.000, 11:20:12.759
54, -8358.21, -3342.37, -6208.78, -6050.17, -102026.44, -86032.80, -94844.46, -133308.59, -8480.54, 322.56, -4676.97, -228.86, -83976.40, -87900.02, -80946.59, -111669.58, 0.000, 0.000, 0.000, 11:20:12.764
55, -1707.36, -6094.54, -6200.40, -6421.07, -101506.42, -86487.57, -94870.86, -133624.94, -8480.54, 322.56, -4676.97, -228.86, -83976.40, -87900.02, -80946.59, -111669.58, 0.000, 0.000, 0.000, 11:20:12.765
56, -1707.36, -6094.54, -6200.40, -6421.07, -101506.42, -86487.57, -94870.86, -133624.94, -773.44, -5878.87, -6387.32, -6016.17, -80197.85, -88816.33, -81229.08, -112297.73, -0.018, 0.938, 0.288, 11:20:12.776
57, -7494.29, -4017.55, -6172.12, -6129.34, -101802.80, -86197.27, -94807.67, -133404.59, -773.44, -5878.87, -6387.32, -6016.17, -80197.85, -88816.33, -81229.08, -112297.73, 0.000, 0.000, 0.000, 11:20:12.776
58, -7494.29, -4017.55, -6172.12, -6129.34, -101802.80, -86197.27, -94807.67, -133404.59, -9032.83, 634.34, -4567.40, 66.50, -84052.21, -87853.33, -80911.55, -111629.62, 0.000, 0.000, 0.000, 11:20:12.776
59, -2788.47, -5408.54, -6226.77, -6325.16, -101724.80, -86326.37, -94903.70, -133551.98, -9032.83, 634.34, -4567.40, 66.50, -84052.21, -87853.33, -80911.55, -111629.62, 0.000, 0.000, 0.000, 11:20:12.782
60, -2788.47, -5408.54, -6226.77, -6325.16, -101724.80, -86326.37, -94903.70, -133551.98, -356.51, -6034.03, -6447.65, -6203.46, -80190.05, -88818.74, -81258.00, -112322.01, 0.000, 0.000, 0.000, 11:20:12.787
61, -6474.74, -4768.77, -6152.03, -6220.94, -101584.43, -86340.78, -94781.02, -133503.34, -356.51, -6034.03, -6447.65, -6203.46, -80190.05, -88818.74, -81258.00, -112322.01, 0.000, 0.000, 0.000, 11:20:12.794
62, -6474.74, -4768.77, -6152.03, -6220.94, -101584.43, -86340.78, -94781.02, -133503.34, -9313.50, 729.00, -4534.14, 168.24, -84008.49, -87839.98, -80895.12, -111619.40, 0.000, 0.000, 0.000, 11:20:12.795
63, -3908.31, -4636.51, -6256.59, -6226.48, -101954.51, -86162.33, -94939.43, -133478.27, -9313.50, 729.00, -4534.14, 168.24, -84008.49, -87839.98, -80895.12, -111619.40, 0.000, 0.000, 0.000, 11:20:12.802
64, -3908.31, -4636.51, -6256.59, -6226.48, -101954.51, -86162.33, -94939.43, -133478.27, -266.03, -5970.98, -6450.74, -6193.38, -80314.40, -88792.93, -81275.48, -112324.02, 0.000, 0.000, 0.000, 11:20:12.803
65, -5310.55, -5517.51, -6124.65, -6313.32, -101363.62, -86505.36, -94755.63, -133608.28, -266.03, -5970.98, -6450.74, -6193.38, -80314.40, -88792.93, -81275.48, -112324.02, -0.016, 0.942, 0.284, 11:20:12.808
66, -5310.55, -5517.51, -6124.65, -6313.32, -101363.62, -86505.36, -94755.63, -133608.28, -9254.25, 533.29, -4547.46, 58.76, -83815.40, -87889.16, -80882.84, -111629.97, 0.000, 0.000, 0.000, 11:20:12.809
67, -5061.71, -3847.20, -6260.14, -6129.18, -102151.16, -86070.84, -94963.91, -133425.16, -9254.25, 533.29, -4547.46, 58.76, -83815.40, -87889.16, -80882.84, -111629.97, 0.000, 0.000, 0.000, 11:20:12.819
68, -5061.71, -3847.20, -6260.14, -6129.18, -102151.16, -86070.84, -94963.91, -133425.16, -416.61, -5739.57, -6389.38, -5980.92, -80541.54, -88765.77, -81274.38, -112301.38, 0.000, 0.000, 0.000, 11:20:12.819
69, -4118.29, -6223.31, -6107.48, -6400.85, -101170.90, -86638.17, -94736.41, -133699.19, -416.61, -5739.57, -6389.38, -5980.92, -80541.54, -88765.77, -81274.38, -112301.38, 0.000, 0.000, 0.000, 11:20:12.824
70, -4118.29, -6223.31, -6107.48, -6400.85, -101170.90, -86638.17, -94736.41, -133699.19, -8938.98, 134.20, -4642.77, -285.50, -83525.00, -87946.51, -80890.13, -111664.91, 0.000, 0.000, 0.000, 11:20:12.825
71, -6270.18, -3185.68, -6281.49, -6038.84, -102334.91, -85927.61, -94983.18, -133355.64, -8938.98, 134.20, -4642.77, -285.50, -83525.00, -87946.51, -80890.13, -111664.91, 0.000, 0.000, 0.000, 11:20:12.830
72, -6270.18, -3185.68, -6281.49, -6038.84, -102334.91, -85927.61, -94983.18, -133355.64, -963.61, -5255.52, -6288.48, -5594.66, -80895.38, -88671.18, -81266.63, -112257.23, 0.000, 0.000, 0.000, 11:20:12.835
73, -2987.65, -6802.33, -6100.26, -6477.94, -101019.69, -86738.35, -94726.71, -133776.03, -963.61, -5255.52, -6288.48, -5594.66, -80895.38, -88671.18, -81266.63, -112257.23, 0.000, 0.000, 0.000, 11:20:12.836
74, -2987.65, -6802.33, -6100.26, -6477.94, -101019.69, -86738.35, -94726.71, -133776.03, -8339.28, -474.59, -4800.89, -823.35, -83141.49, -88029.17, -80910.54, -111721.28, 0.000, 0.000, 0.000, 11:20:12.841
75, -7273.55, -2623.38, -6276.84, -5962.57, -102460.10, -85866.66, -94989.70, -133315.13, -8339.28, -474.59, -4800.89, -823.35, -83141.49, -88029.17, -80910.54, -111721.28, -0.020, 0.944, 0.290, 11:20:12.846
76, -7273.55, -2623.38, -6276.84, -5962.57, -102460.10, -85866.66, -94989.70, -133315.13, -1699.74, -4668.39, -6111.23, -5001.78, -81303.80, -88607.19, -81236.05, -112192.14, 0.000, 0.000, 0.000, 11:20:12.852
77, -1930.12, -7209.55, -6087.50, -6538.18, -100910.44, -86845.15, -94723.47, -133845.14, -1699.74, -4668.39, -6111.23, -5001.78, -81303.80, -88607.19, -81236.05, -112192.14, 0.000, 0.000, 0.000, 11:20:12.857
78, -1930.12, -7209.55, -6087.50, -6538.18, -100910.44, -86845.15, -94723.47, -133845.14, -7483.68, -1266.70, -5000.58, -1534.69, -82678.61, -88155.21, -80940.76, -111795.17, 0.000, 0.000, 0.000, 11:20:12.858
79, -8228.86, -2292.86, -6285.56, -5907.68, -102543.63, -85789.30, -94988.63, -133272.27, -7483.68, -1266.70, -5000.58, -1534.69, -82678.61, -88155.21, -80940.76, -111795.17, 0.000, 0.000, 0.000, 11:20:12.863
80, -8228.86, -2292.86, -6285.56, -5907.68, -102543.63, -85789.30, -94988.63, -133272.27, -2743.10, -3877.13, -5910.74, -4303.65, -81802.76, -88472.54, -81205.43, -112112.86, 0.000, 0.000, 0.000, 11:20:12.864
81, -1156.23, -7462.53, -6096.19, -6575.77, -100872.23, -86872.13, -94732.50, -133876.69, -2743.10, -3877.13, -5910.74, -4303.65, -81802.76, -88472.54, -81205.43, -112112.86, 0.000, 0.000, 0.000, 11:20:12.870
82, -1156.23, -7462.53, -6096.19, -6575.77, -100872.23, -86872.13, -94732.50, -133876.69, -6461.84, -2118.97, -5259.68, -2355.58, -82190.58, -88264.47, -80984.50, -111880.91, 0.000, 0.000, 0.000, 11:20:12.875
83, -8888.22, -2138.97, -6287.12, -5874.87, -102569.89, -85746.61, -94978.57, -133246.86, -6461.84, -2118.97, -5259.68, -2355.58, -82190.58, -88264.47, -80984.50, -111880.91, 0.000, 0.000, 0.000, 11:20:12.880
84, -8888.22, -2138.97, -6287.12, -5874.87, -102569.89, -85746.61, -94978.57, -133246.86, -3948.79, -2998.93, -5680.47, -3498.67, -82334.99, -88323.74, -81169.10, -112025.80, 0.000, 0.000, 0.000, 11:20:12.881
85, -610.27, -7549.17, -6110.77, -6592.47, -100893.85, -86870.50, -94753.96, -133891.80, -3948.79, -2998.93, -5680.47, -3498.67, -82334.99, -88323.74, -81169.10, -112025.80, -0.022, 0.946, 0.292, 11:20:12.886
86, -610.27, -7549.17, -6110.77, -6592.47, -100893.85, -86870.50, -94753.96, -133891.80, -5306.73, -3015.61, -5527.79, -3214.07, -81683.80, -88401.10, -81035.11, -111977.43, 0.000, 0.000, 0.000, 11:20:12.892
87, -9244.82, -2116.20, -6266.00, -5866.55, -102524.25, -85785.12, -94957.98, -133257.34, -5306.73, -3015.61, -5527.79, -3214.07, -81683.80, -88401.10, -81035.11, -111977.43, 0.000, 0.000, 0.000, 11:20:12.893
88, -9244.82, -2116.20, -6266.00, -5866.55, -102524.25, -85785.12, -94957.98, -133257.34, -5095.73, -2149.72, -5406.06, -2631.96, -82818.77, -88225.26, -81113.80, -111930.96, 0.000, 0.000, 0.000, 11:20:12.898
89, -359.68, -7471.47, -6118.86, -6581.47, -100957.77, -86851.66, -94776.11, -133888.31, -5095.73, -2149.72, -5406.06, -2631.96, -82818.77, -88225.26, -81113.80, -111930.96, 0.000, 0.000, 0.000, 11:20:12.903
90, -359.68, -7471.47, -6118.86, -6581.47, -100957.77, -86851.66, -94776.11, -133888.31, -4111.54, -3885.20, -5789.73, -4054.00, -81205.12, -88522.85, -81087.30, -112070.48, 0.000, 0.000, 0.000, 11:20:12.908
91, -9336.12, -2282.25, -6250.46, -5882.26, -102435.27, -85829.16, -94931.81, -133278.83, -4111.54, -3885.20, -5789.73, -4054.00, -81205.12, -88522.85, -81087.30, -112070.48, 0.000, 0.000, 0.000, 11:20:12.909
92, -9336.12, -2282.25, -6250.46, -5882.26, -102435.27, -85829.16, -94931.81, -133278.83, -6319.73, -1266.87, -5155.52, -1802.06, -83291.74, -88081.88, -81065.66, -111839.05, 0.000, 0.000, 0.000, 11:20:12.914
93, -448.06, -7247.75, -6140.38, -6543.52, -101079.68, -86761.13, -94802.75, -133854.77, -6319.73, -1266.87, -5155.52, -1802.06, -83291.74, -88081.88, -81065.66, -111839.05, 0.000, 0.000, 0.000, 11:20:12.919
94, -448.06, -7247.75, -6140.38, -6543.52, -101079.68, -86761.13, -94802.75, -133854.77, -2973.97, -4646.12, -6020.98, -4810.83, -80791.54, -88619.27, -81138.10, -112155.22, 0.000, 0.000, 0.000, 11:20:12.920
95, -9115.00, -2581.18, -6223.71, -5918.85, -102293.36, -85915.92, -94898.58, -133327.69, -2973.97, -4646.12, -6020.98, -4810.83, -80791.54, -88619.27, -81138.10, -112155.22, -0.020, 0.948, 0.288, 11:20:12.925
96, -9115.00, -2581.18, -6223.71, -5918.85, -102293.36, -85915.92, -94898.58, -133327.69, -7335.78, -545.45, -4915.01, -1032.32, -83646.73, -88001.79, -81009.91, -111756.88, 0.000, 0.000, 0.000, 11:20:12.930
97, -742.86, -6852.02, -6146.24, -6487.88, -101226.04, -86707.63, -94829.73, -133825.97, -7335.78, -545.45, -4915.01, -1032.32, -83646.73, -88001.79, -81009.91, -111756.88, 0.000, 0.000, 0.000, 11:20:12.935
98, -742.86, -6852.02, -6146.24, -6487.88, -101226.04, -86707.63, -94829.73, -133825.97, -1914.92, -5303.11, -6196.10, -5424.97, -80451.57, -88732.49, -81181.73, -112229.36, 0.000, 0.000, 0.000, 11:20:12.936
99, -8606.79, -3026.72, -6193.60, -5980.99, -102111.93, -86051.35, -94864.60, -133402.53, -1914.92, -5303.11, -6196.10, -5424.97, -80451.57, -88732.49, -81181.73, -112229.36, 0.000, 0.000, 0.000, 11:20:12.941
100, -8606.79, -3026.72, -6193.60, -5980.99, -102111.93, -86051.35, -94864.60, -133402.53, -8247.03, 98.35, -4716.04, -429.15, -83928.30, -87909.63, -80972.32, -111695.30, 0.000, 0.000, 0.000, 11:20:12.946
101, -1473.23, -6320.65, -6181.26, -6418.04, -101432.15, -86573.89, -94867.80, -133765.31, -8247.03, 98.35, -4716.04, -429.15, -83928.30, -87909.63, -80972.32, -111695.30, 0.000, 0.000, 0.000, 11:20:12.951
102, -1473.23, -6320.65, -6181.26, -6418.04, -101432.15, -86573.89, -94867.80, -133765.31, -1109.23, -5751.48, -6339.85, -5878.91, -80259.30, -88785.09, -81226.23, -112287.34, 0.000, 0.000, 0.000, 11:20:12.952
103, -7866.03, -3671.03, -6168.92, -6056.12, -101907.05, -86182.20, -94829.71, -133478.00, -1109.23, -5751.48, -6339.85, -5878.91, -80259.30, -88785.09, -81226.23, -112287.34, 0.000, 0.000, 0.000, 11:20:12.957
104, -7866.03, -3671.03, -6168.92, -6056.12, -101907.05, -86182.20, -94829.71, -133478.00, -8875.05, 427.70, -4588.39, -3.78, -84047.83, -87880.28, -80929.49, -111647.79, 0.000, 0.000, 0.000, 11:20:12.962
105, -2269.33, -5648.31, -6187.90, -6329.77, -101633.83, -86484.88, -94895.94, -133702.05, -8875.05, 427.70, -4588.39, -3.78, -84047.83, -87880.28, -80929.49, -111647.79, -0.018, 0.948, 0.290, 11:20:12.966
106, -2269.33, -5648.31, -6187.90, -6329.77, -101633.83, -86484.88, -94895.94, -133702.05, -545.61, -6043.71, -6411.84, -6135.22, -80178.37, -88849.50, -81254.45, -112322.59, 0.000, 0.000, 0.000, 11:20:12.971
107, -6895.40, -4436.31, -6138.28, -6146.46, -101681.13, -86356.92, -94796.94, -133565.61, -545.61, -6043.71, -6411.84, -6135.22, -80178.37, -88849.50, -81254.45, -112322.59, 0.000, 0.000, 0.000, 11:20:12.972
108, -6895.40, -4436.31, -6138.28, -6146.46, -101681.13, -86356.92, -94796.94, -133565.61, -9271.37, 578.60, -4528.33, 148.80, -84057.24, -87862.67, -80905.11, -111624.25, 0.000, 0.000, 0.000, 11:20:12.977
109, -3468.86, -4932.67, -6220.94, -6232.83, -101868.12, -86318.03, -94927.77, -133606.72, -9271.37, 578.60, -4528.33, 148.80, -84057.24, -87862.67, -80905.11, -111624.25, 0.000, 0.000, 0.000, 11:20:12.982
110, -3468.86, -4932.67, -6220.94, -6232.83, -101868.12, -86318.03, -94927.77, -133606.72, -331.63, -6088.01, -6444.72, -6215.39, -80258.20, -88838.84, -81279.05, -112334.16, 0.000, 0.000, 0.000, 11:20:12.988
111, -5814.14, -5224.61, -6123.35, -6241.77, -101466.77, -86502.27, -94771.88, -133649.77, -331.63, -6088.01, -6444.72, -6215.39, -80258.20, -88838.84, -81279.05, -112334.16, 0.000, 0.000, 0.000, 11:20:12.993
112, -5814.14, -5224.61, -6123.35, -6241.77, -101466.77, -86502.27, -94771.88, -133649.77, -9382.23, 513.17, -4551.89, 101.30, -83941.84, -87869.63, -80895.03, -111625.23, 0.000, 0.000, 0.000, 11:20:12.994
113, -4669.50, -4185.16, -6251.72, -6133.34, -102097.83, -86148.63, -94956.20, -133511.59, -9382.23, 513.17, -4551.89, 101.30, -83941.84, -87869.63, -80895.03, -111625.23, 0.000, 0.000, 0.000, 11:20:12.999
114, -4669.50, -4185.16, -6251.72, -6133.34, -102097.83, -86148.63, -94956.20, -133511.59, -444.60, -5913.15, -6419.42, -6095.45, -80460.69, -88793.48, -81289.13, -112321.67, 0.000, 0.000, 0.000, 11:20:13.000
115, -4635.51, -5952.94, -6099.79, -6332.92, -101256.70, -86657.04, -94746.74, -133735.58, -444.60, -5913.15, -6419.42, -6095.45, -80460.69, -88793.48, -81289.13, -112321.67, -0.020, 0.948, 0.294, 11:20:13.005
116, -4635.51, -5952.94, -6099.79, -6332.92, -101256.70, -86657.04, -94746.74, -133735.58, -9160.19, 185.70, -4615.52, -144.44, -83683.21, -87936.19, -80892.97, -111650.88, 0.000, 0.000, 0.000, 11:20:13.010
117, -5807.81, -3459.67, -6253.86, -6040.49, -102279.45, -86057.43, -94972.27, -133442.97, -9160.19, 185.70, -4615.52, -144.44, -83683.21, -87936.19, -80892.97, -111650.88, 0.000, 0.000, 0.000, 11:20:13.016
118, -5807.81, -3459.67, -6253.86, -6040.49, -102279.45, -86057.43, -94972.27, -133442.97, -789.66, -5580.94, -6323.15, -5768.65, -80743.51, -88751.13, -81274.70, -112281.23, 0.000, 0.000, 0.000, 11:20:13.017
119, -3469.62, -6590.50, -6083.56, -6413.23, -101079.66, -86777.09, -94725.98, -133804.73, -789.66, -5580.94, -6323.15, -5768.65, -80743.51, -88751.13, -81274.70, -112281.23, 0.000, 0.000, 0.000, 11:20:13.023
120, -3469.62, -6590.50, -6083.56, -6413.23, -101079.66, -86777.09, -94725.98, -133804.73, -8683.72, -335.37, -4748.52, -613.85, -83338.39, -88012.65, -80909.69, -111700.13, 0.000, 0.000, 0.000, 11:20:13.029
121, -6989.44, -2908.25, -6275.79, -5960.72, -102444.50, -85922.85, -94986.13, -133363.58, -8683.72, -335.37, -4748.52, -613.85, -83338.39, -88012.65, -80909.69, -111700.13, 0.000, 0.000, 0.000, 11:20:13.029
122, -6989.44, -2908.25, -6275.79, -5960.72, -102444.50, -85922.85, -94986.13, -133363.58, -1498.89, -5018.73, -6199.46, -5294.46, -81156.86, -88645.72, -81264.73, -112230.16, 0.000, 0.000, 0.000, 11:20:13.036
123, -2430.17, -7082.19, -6086.69, -6485.72, -100963.09, -86856.77, -94724.14, -133858.56, -1498.89, -5018.73, -6199.46, -5294.46, -81156.86, -88645.72, -81264.73, -112230.16, 0.000, 0.000, 0.000, 11:20:13.036
124, -2430.17, -7082.19, -6086.69, -6485.72, -100963.09, -86856.77, -94724.14, -133858.56, -7948.03, -1024.56, -4941.68, -1259.12, -82918.55, -88104.54, -80940.07, -111768.66, -0.018, 0.946, 0.292, 11:20:13.041
125, -7871.95, -2454.82, -6269.11, -5896.17, -102542.47, -85865.12, -94986.80, -133312.28, -7948.03, -1024.56, -4941.68, -1259.12, -82918.55, -88104.54, -80940.07, -111768.66, 0.000, 0.000, 0.000, 11:20:13.046
126, -7871.95, -2454.82, -6269.11, -5896.17, -102542.47, -85865.12, -94986.80, -133312.28, -2383.03, -4357.32, -5997.46, -4609.24, -81602.95, -88569.97, -81228.59, -112156.71, 0.000, 0.000, 0.000, 11:20:13.047
127, -1478.10, -7389.55, -6078.91, -6536.14, -100886.79, -86933.35, -94726.65, -133899.13, -2383.03, -4357.32, -5997.46, -4609.24, -81602.95, -88569.97, -81228.59, -112156.71, 0.000, 0.000, 0.000, 11:20:13.052
128, -1478.10, -7389.55, -6078.91, -6536.14, -100886.79, -86933.35, -94726.65, -133899.13, -6978.88, -1862.50, -5159.65, -2031.95, -82429.92, -88244.64, -80981.53, -111856.57, 0.000, 0.000, 0.000, 11:20:13.058
129, -8683.50, -2210.54, -6275.07, -5856.27, -102595.09, -85792.01, -94982.62, -133263.89, -6978.88, -1862.50, -5159.65, -2031.95, -82429.92, -88244.64, -80981.53, -111856.57, 0.000, 0.000, 0.000, 11:20:13.063
130, -8683.50, -2210.54, -6275.07, -5856.27, -102595.09, -85792.01, -94982.62, -133263.89, -3505.89, -3503.93, -5775.36, -3850.11, -82125.31, -88421.62, -81194.85, -112072.00, 0.000, 0.000, 0.000, 11:20:13.064
131, -870.98, -7545.05, -6092.95, -6561.13, -100884.77, -86917.88, -94741.95, -133902.14, -3505.89, -3503.93, -5775.36, -3850.11, -82125.31, -88421.62, -81194.85, -112072.00, 0.000, 0.000, 0.000, 11:20:13.068
132, -870.98, -7545.05, -6092.95, -6561.13, -100884.77, -86917.88, -94741.95, -133902.14, -5877.19, -2725.15, -5424.57, -2880.42, -81929.67, -88354.66, -81030.23, -111947.84, 0.000, 0.000, 0.000, 11:20:13.075
133, -9176.51, -2115.64, -6271.72, -5837.43, -102588.00, -85755.62, -94969.70, -133239.09, -5877.19, -2725.15, -5424.57, -2880.42, -81929.67, -88354.66, -81030.23, -111947.84, 0.000, 0.000, 0.000, 11:20:13.076
134, -9176.51, -2115.64, -6271.72, -5837.43, -102588.00, -85755.62, -94969.70, -133239.09, -4745.74, -2583.66, -5530.16, -3006.73, -82662.42, -88263.91, -81156.81, -111982.41, -0.016, 0.942, 0.288, 11:20:13.082
135, -511.85, -7536.81, -6109.49, -6561.27, -100938.77, -86876.20, -94765.20, -133889.97, -4745.74, -2583.66, -5530.16, -3006.73, -82662.42, -88263.91, -81156.81, -111982.41, 0.000, 0.000, 0.000, 11:20:13.090
136, -511.85, -7536.81, -6109.49, -6561.27, -100938.77, -86876.20, -94765.20, -133889.97, -4688.05, -3600.26, -5686.53, -3731.91, -81427.16, -88487.80, -81081.62, -112044.09, 0.000, 0.000, 0.000, 11:20:13.090
137, -9347.72, -2191.59, -6244.34, -5841.54, -102506.28, -85803.54, -94943.41, -133249.77, -4688.05, -3600.26, -5686.53, -3731.91, -81427.16, -88487.80, -81081.62, -112044.09, 0.000, 0.000, 0.000, 11:20:13.096
138, -9347.72, -2191.59, -6244.34, -5841.54, -102506.28, -85803.54, -94943.41, -133249.77, -5879.34, -1743.37, -5253.02, -2145.23, -83119.07, -88163.39, -81099.08, -111887.45, 0.000, 0.000, 0.000, 11:20:13.097
139, -412.23, -7367.00, -6117.81, -6535.60, -101032.02, -86826.94, -94788.85, -133860.55, -5879.34, -1743.37, -5253.02, -2145.23, -83119.07, -88163.39, -81099.08, -111887.45, 0.000, 0.000, 0.000, 11:20:13.102
140, -412.23, -7367.00, -6117.81, -6535.60, -101032.02, -86826.94, -94788.85, -133860.55, -3510.07, -4417.08, -5928.15, -4527.61, -80977.44, -88603.14, -81133.86, -112134.90, 0.000, 0.000, 0.000, 11:20:13.102
141, -9261.98, -2435.78, -6222.79, -5869.95, -102382.34, -85853.80, -94913.53, -133268.97, -3510.07, -4417.08, -5928.15, -4527.61, -80977.44, -88603.14, -81133.86, -112134.90, 0.000, 0.000, 0.000, 11:20:13.108
142, -9261.98, -2435.78, -6222.79, -5869.95, -102382.34, -85853.80, -94913.53, -133268.97, -7027.66, -901.36, -5015.15, -1365.00, -83545.21, -88024.01, -81054.58, -111803.66, 0.000, 0.000, 0.000, 11:20:13.114
143, -709.20, -7059.55, -6147.33, -6490.12, -101187.15, -86701.54, -94822.78, -133799.75, -7027.66, -901.36, -5015.15, -1365.00, -83545.21, -88024.01, -81054.58, -111803.66, 0.000, 0.000, 0.000, 11:20:13.121
144, -709.20, -7059.55, -6147.33, -6490.12, -101187.15, -86701.54, -94822.78, -133799.75, -2439.80, -5098.37, -6142.44, -5214.68, -80621.11, -88692.28, -81191.32, -112221.76, -0.012, 0.936, 0.286, 11:20:13.121
145, -8883.77, -2840.95, -6201.33, -5925.78, -102220.18, -85944.13, -94885.66, -133315.77, -2439.80, -5098.37, -6142.44, -5214.68, -80621.11, -88692.28, -81191.32, -112221.76, 0.000, 0.000, 0.000, 11:20:13.127
146, -8883.77, -2840.95, -6201.33, -5925.78, -102220.18, -85944.13, -94885.66, -133315.77, -7952.08, -259.41, -4801.40, -674.20, -83840.07, -87956.48, -81007.26, -111735.96, 0.000, 0.000, 0.000, 11:20:13.127
147, -1139.83, -6572.53, -6155.25, -6425.75, -101356.59, -86618.30, -94854.59, -133746.31, -7952.08, -259.41, -4801.40, -674.20, -83840.07, -87956.48, -81007.26, -111735.96, 0.000, 0.000, 0.000, 11:20:13.135
148, -1139.83, -6572.53, -6155.25, -6425.75, -101356.59, -86618.30, -94854.59, -133746.31, -1492.52, -5650.72, -6290.29, -5729.42, -80348.10, -88791.81, -81233.41, -112288.81, 0.000, 0.000, 0.000, 11:20:13.142
149, -8215.03, -3391.16, -6166.02, -5994.87, -102013.31, -86078.22, -94848.82, -133383.22, -1492.52, -5650.72, -6290.29, -5729.42, -80348.10, -88791.81, -81233.41, -112288.81, 0.000, 0.000, 0.000, 11:20:13.142
150, -8215.03, -3391.16, -6166.02, -5994.87, -102013.31, -86078.22, -94848.82, -133383.22, -8708.60, 264.18, -4634.68, -192.74, -84035.96, -87872.98, -80967.41, -111678.84, 0.000, 0.000, 0.000, 11:20:13.151
151, -2039.02, -5943.53, -6178.60, -6335.00, -101567.95, -86442.77, -94884.96, -133654.00, -8708.60, 264.18, -4634.68, -192.74, -84035.96, -87872.98, -80967.41, -111678.84, 0.000, 0.000, 0.000, 11:20:13.152
152, -2039.02, -5943.53, -6178.60, -6335.00, -101567.95, -86442.77, -94884.96, -133654.00, -836.74, -5966.08, -6391.97, -6063.11, -80224.66, -88817.98, -81267.72, -112329.13, 0.000, 0.000, 0.000, 11:20:13.152
153, -7336.69, -4077.45, -6139.38, -6075.74, -101794.02, -86202.77, -94814.53, -133455.22, -836.74, -5966.08, -6391.97, -6063.11, -80224.66, -88817.98, -81267.72, -112329.13, 0.000, 0.000, 0.000, 11:20:13.159
154, -7336.69, -4077.45, -6139.38, -6075.74, -101794.02, -86202.77, -94814.53, -133455.22, -9207.22, 562.79, -4539.37, 88.62, -84099.95, -87822.48, -80939.27, -111646.27, -0.018, 0.944, 0.284, 11:20:13.160
155, -3043.41, -5200.31, -6208.98, -6240.09, -101802.29, -86259.36, -94923.19, -133557.95, -9207.22, 562.79, -4539.37, 88.62, -84099.95, -87822.48, -80939.27, -111646.27, 0.000, 0.000, 0.000, 11:20:13.165
156, -3043.41, -5200.31, -6208.98, -6240.09, -101802.29, -86259.36, -94923.19, -133557.95, -489.41, -6080.95, -6441.86, -6211.33, -80241.75, -88822.30, -81298.27, -112354.37, 0.000, 0.000, 0.000, 11:20:13.170
157, -6271.97, -4830.28, -6112.22, -6169.51, -101567.13, -86354.40, -94787.30, -133539.22, -489.41, -6080.95, -6441.86, -6211.33, -80241.75, -88822.30, -81298.27, -112354.37, 0.000, 0.000, 0.000, 11:20:13.175
158, -6271.97, -4830.28, -6112.22, -6169.51, -101567.13, -86354.40, -94787.30, -133539.22, -9378.52, 578.89, -4497.26, 159.57, -84008.29, -87841.57, -80916.64, -111637.51, 0.000, 0.000, 0.000, 11:20:13.176
159, -4139.30, -4378.24, -6212.11, -6138.35, -102011.88, -86129.78, -94950.12, -133470.83, -9378.52, 578.89, -4497.26, 159.57, -84008.29, -87841.57, -80916.64, -111637.51, 0.000, 0.000, 0.000, 11:20:13.181
160, -4139.30, -4378.24, -6212.11, -6138.35, -102011.88, -86129.78, -94950.12, -133470.83, -390.15, -6011.28, -6424.36, -6155.65, -80368.35, -88808.59, -81306.62, -112348.29, 0.000, 0.000, 0.000, 11:20:13.186
161, -5107.24, -5588.23, -6089.00, -6259.99, -101348.30, -86480.17, -94760.66, -133611.02, -390.15, -6011.28, -6424.36, -6155.65, -80368.35, -88808.59, -81306.62, -112348.29, 0.000, 0.000, 0.000, 11:20:13.186
162, -5107.24, -5588.23, -6089.00, -6259.99, -101348.30, -86480.17, -94760.66, -133611.02, -9297.05, 391.27, -4526.56, 2.77, -83810.95, -87871.14, -80914.77, -111655.16, 0.000, 0.000, 0.000, 11:20:13.191
163, -5356.93, -3601.72, -6237.59, -6041.99, -102227.35, -85951.66, -94979.78, -133372.45, -9297.05, 391.27, -4526.56, 2.77, -83810.95, -87871.14, -80914.77, -111655.16, 0.000, 0.000, 0.000, 11:20:13.196
164, -5356.93, -3601.72, -6237.59, -6041.99, -102227.35, -85951.66, -94979.78, -133372.45, -664.54, -5697.10, -6366.34, -5919.30, -80635.39, -88733.94, -81310.62, -112322.48, -0.022, 0.940, 0.284, 11:20:13.201
165, -3936.81, -6275.56, -6077.98, -6349.30, -101163.81, -86592.22, -94747.81, -133683.45, -664.54, -5697.10, -6366.34, -5919.30, -80635.39, -88733.94, -81310.62, -112322.48, 0.000, 0.000, 0.000, 11:20:13.206
166, -3936.81, -6275.56, -6077.98, -6349.30, -101163.81, -86592.22, -94747.81, -133683.45, -8916.85, -39.76, -4627.57, -365.47, -83498.67, -87938.87, -80925.98, -111697.41, 0.000, 0.000, 0.000, 11:20:13.211
167, -6422.64, -2884.49, -6234.57, -5954.42, -102388.02, -85858.93, -94995.91, -133306.48, -8916.85, -39.76, -4627.57, -365.47, -83498.67, -87938.87, -80925.98, -111697.41, 0.000, 0.000, 0.000, 11:20:13.211
168, -6422.64, -2884.49, -6234.57, -5954.42, -102388.02, -85858.93, -94995.91, -133306.48, -1153.13, -5246.04, -6230.64, -5470.25, -80965.50, -88684.48, -81289.65, -112273.13, 0.000, 0.000, 0.000, 11:20:13.217
169, -2764.69, -6815.11, -6054.51, -6422.08, -101003.75, -86715.09, -94735.66, -133752.95, -1153.13, -5246.04, -6230.64, -5470.25, -80965.50, -88684.48, -81289.65, -112273.13, 0.000, 0.000, 0.000, 11:20:13.222
170, -2764.69, -6815.11, -6054.51, -6422.08, -101003.75, -86715.09, -94735.66, -133752.95, -8251.33, -674.04, -4755.87, -927.84, -83085.45, -88042.73, -80943.94, -111755.59, 0.000, 0.000, 0.000, 11:20:13.227
171, -7506.97, -2325.83, -6245.73, -5881.21, -102520.77, -85735.73, -95006.22, -133235.91, -8251.33, -674.04, -4755.87, -927.84, -83085.45, -88042.73, -80943.94, -111755.59, 0.000, 0.000, 0.000, 11:20:13.227
172, -7506.97, -2325.83, -6245.73, -5881.21, -102520.77, -85735.73, -95006.22, -133235.91, -1987.52, -4548.16, -6059.22, -4875.18, -81418.93, -88563.09, -81270.96, -112210.09, 0.000, 0.000, 0.000, 11:20:13.232
173, -1793.53, -7209.58, -6060.74, -6485.83, -100919.55, -86775.30, -94747.08, -133802.66, -1987.52, -4548.16, -6059.22, -4875.18, -81418.93, -88563.09, -81270.96, -112210.09, 0.000, 0.000, 0.000, 11:20:13.237
174, -1793.53, -7209.58, -6060.74, -6485.83, -100919.55, -86775.30, -94747.08, -133802.66, -7373.46, -1434.02, -4974.51, -1657.38, -82629.13, -88151.52, -80988.19, -111841.69, -0.020, 0.946, 0.284, 11:20:13.242
175, -8342.36, -1948.22, -6254.20, -5834.16, -102598.86, -85655.52, -95011.80, -133190.39, -7373.46, -1434.02, -4974.51, -1657.38, -82629.13, -88151.52, -80988.19, -111841.69, 0.000, 0.000, 0.000, 11:20:13.242
176, -8342.36, -1948.22, -6254.20, -5834.16, -102598.86, -85655.52, -95011.80, -133190.39, -3052.15, -3715.46, -5837.90, -4128.90, -81923.50, -88419.43, -81241.64, -112132.22, 0.000, 0.000, 0.000, 11:20:13.247
177, -995.88, -7422.05, -6063.74, -6521.77, -100886.45, -86803.00, -94762.34, -133829.80, -3052.15, -3715.46, -5837.90, -4128.90, -81923.50, -88419.43, -81241.64, -112132.22, 0.000, 0.000, 0.000, 11:20:13.252
178, -995.88, -7422.05, -6063.74, -6521.77, -100886.45, -86803.00, -94762.34, -133829.80, -6294.14, -2292.86, -5222.93, -2475.21, -82115.97, -88284.11, -81030.66, -111931.99, 0.000, 0.000, 0.000, 11:20:13.256
179, -8913.23, -1751.71, -6233.34, -5806.25, -102593.85, -85660.53, -94998.22, -133177.86, -6294.14, -2292.86, -5222.93, -2475.21, -82115.97, -88284.11, -81030.66, -111931.99, 0.000, 0.000, 0.000, 11:20:13.261
180, -8913.23, -1751.71, -6233.34, -5806.25, -102593.85, -85660.53, -94998.22, -133177.86, -4138.54, -2877.45, -5557.22, -3283.54, -82405.45, -88320.63, -81190.83, -112042.01, 0.000, 0.000, 0.000, 11:20:13.266
181, -493.48, -7474.13, -6068.61, -6532.43, -100907.33, -86800.91, -94781.97, -133835.41, -4138.54, -2877.45, -5557.22, -3283.54, -82405.45, -88320.63, -81190.83, -112042.01, 0.000, 0.000, 0.000, 11:20:13.266
182, -493.48, -7474.13, -6068.61, -6532.43, -100907.33, -86800.91, -94781.97, -133835.41, -5121.90, -3185.03, -5500.88, -3336.74, -81608.79, -88409.88, -81082.07, -112027.84, 0.000, 0.000, 0.000, 11:20:13.271
183, -9232.77, -1762.52, -6220.98, -5802.47, -102545.71, -85667.33, -94980.20, -133177.08, -5121.90, -3185.03, -5500.88, -3336.74, -81608.79, -88409.88, -81082.07, -112027.84, -0.020, 0.948, 0.286, 11:20:13.276
184, -9232.77, -1762.52, -6220.98, -5802.47, -102545.71, -85667.33, -94980.20, -133177.08, -5370.07, -1949.65, -5276.69, -2421.92, -82913.28, -88168.27, -81145.37, -111948.93, 0.000, 0.000, 0.000, 11:20:13.281
185, -301.82, -7361.79, -6084.90, -6518.80, -100989.38, -86747.72, -94810.84, -133820.25, -5370.07, -1949.65, -5276.69, -2421.92, -82913.28, -88168.27, -81145.37, -111948.93, 0.000, 0.000, 0.000, 11:20:13.286
186, -301.82, -7361.79, -6084.90, -6518.80, -100989.38, -86747.72, -94810.84, -133820.25, -3912.47, -4036.88, -5763.98, -4161.92, -81123.27, -88545.20, -81134.33, -112124.08, 0.000, 0.000, 0.000, 11:20:13.286
187, -9222.33, -1929.98, -6189.96, -5823.41, -102431.29, -85751.39, -94953.09, -133214.33, -3912.47, -4036.88, -5763.98, -4161.92, -81123.27, -88545.20, -81134.33, -112124.08, 0.000, 0.000, 0.000, 11:20:13.291
188, -9222.33, -1929.98, -6189.96, -5823.41, -102431.29, -85751.39, -94953.09, -133214.33, -6465.17, -1161.66, -4979.16, -1565.92, -83330.12, -88082.59, -81087.55, -111859.68, 0.000, 0.000, 0.000, 11:20:13.296
189, -354.03, -7075.91, -6089.67, -6480.15, -101104.96, -86700.52, -94838.05, -133795.55, -6465.17, -1161.66, -4979.16, -1565.92, -83330.12, -88082.59, -81087.55, -111859.68, 0.000, 0.000, 0.000, 11:20:13.301
190, -354.03, -7075.91, -6089.67, -6480.15, -101104.96, -86700.52, -94838.05, -133795.55, -2762.18, -4802.65, -6001.64, -4901.49, -80710.58, -88661.77, -81186.18, -112211.59, 0.000, 0.000, 0.000, 11:20:13.306
191, -8955.92, -2307.01, -6166.27, -5867.42, -102280.23, -85842.59, -94923.83, -133263.73, -2762.18, -4802.65, -6001.64, -4901.49, -80710.58, -88661.77, -81186.18, -112211.59, 0.000, 0.000, 0.000, 11:20:13.311
192, -8955.92, -2307.01, -6166.27, -5867.42, -102280.23, -85842.59, -94923.83, -133263.73, -7526.01, -380.63, -4740.18, -848.14, -83700.26, -87959.19, -81042.21, -111780.78, 0.000, 0.000, 0.000, 11:20:13.311
193, -839.22, -6644.50, -6113.63, -6416.63, -101277.25, -86568.02, -94870.27, -133733.72, -7526.01, -380.63, -4740.18, -848.14, -83700.26, -87959.19, -81042.21, -111780.78, -0.022, 0.946, 0.286, 11:20:13.316
194, -839.22, -6644.50, -6113.63, -6416.63, -101277.25, -86568.02, -94870.27, -133733.72, -1776.16, -5392.69, -6192.17, -5495.98, -80404.79, -88732.13, -81231.09, -112279.54, 0.000, 0.000, 0.000, 11:20:13.320
195, -8405.93, -2856.02, -6136.40, -5926.68, -102089.06, -85956.67, -94888.78, -133327.09, -1776.16, -5392.69, -6192.17, -5495.98, -80404.79, -88732.13, -81231.09, -112279.54, 0.000, 0.000, 0.000, 11:20:13.326
196, -8405.93, -2856.02, -6136.40, -5926.68, -102089.06, -85956.67, -94888.78, -133327.09, -8332.22, 123.16, -4544.94, -249.15, -83917.43, -87909.59, -80991.21, -111716.25, 0.000, 0.000, 0.000, 11:20:13.326
197, -1425.57, -6033.99, -6115.62, -6337.77, -101460.71, -86491.62, -94901.05, -133683.80, -8332.22, 123.16, -4544.94, -249.15, -83917.43, -87909.59, -80991.21, -111716.25, 0.000, 0.000, 0.000, 11:20:13.331
198, -1425.57, -6033.99, -6115.62, -6337.77, -101460.71, -86491.62, -94901.05, -133683.80, -965.44, -5843.77, -6314.70, -5905.29, -80207.17, -88824.78, -81267.90, -112334.34, 0.000, 0.000, 0.000, 11:20:13.336
199, -7582.56, -3557.50, -6102.54, -6007.46, -101871.29, -86125.31, -94857.65, -133418.70, -965.44, -5843.77, -6314.70, -5905.29, -80207.17, -88824.78, -81267.90, -112334.34, 0.000, 0.000, 0.000, 11:20:13.342
200, -7582.56, -3557.50, -6102.54, -6007.46, -101871.29, -86125.31, -94857.65, -133418.70, -8944.12, 489.95, -4412.23, 95.24, -84034.29, -87859.50, -80958.59, -111674.81, 0.000, 0.000, 0.000, 11:20:13.343
201, -2465.60, -5322.87, -6143.91, -6245.81, -101688.81, -86328.02, -94939.08, -133603.50, -8944.12, 489.95, -4412.23, 95.24, -84034.29, -87859.50, -80958.59, -111674.81, 0.000, 0.000, 0.000, 11:20:13.350
202, -2465.60, -5322.87, -6143.91, -6245.81, -101688.81, -86328.02, -94939.08, -133603.50, -468.60, -6044.76, -6389.74, -6131.89, -80164.30, -88839.89, -81300.76, -112366.09, 0.000, 0.000, 0.000, 11:20:13.351
203, -6576.87, -4329.69, -6077.22, -6096.51, -101648.87, -86272.21, -94831.20, -133512.23, -468.60, -6044.76, -6389.74, -6131.89, -80164.30, -88839.89, -81300.76, -112366.09, -0.022, 0.942, 0.286, 11:20:13.357
204, -6576.87, -4329.69, -6077.22, -6096.51, -101648.87, -86272.21, -94831.20, -133512.23, -9271.50, 656.09, -4337.20, 254.54, -84012.83, -87838.76, -80939.64, -111659.84, 0.000, 0.000, 0.000, 11:20:13.364
205, -3549.70, -4502.54, -6168.57, -6146.48, -101922.14, -86162.20, -94977.70, -133524.88, -9271.50, 656.09, -4337.20, 254.54, -84012.83, -87838.76, -80939.64, -111659.84, 0.000, 0.000, 0.000, 11:20:13.364
206, -3549.70, -4502.54, -6168.57, -6146.48, -101922.14, -86162.20, -94977.70, -133524.88, -275.93, -6022.52, -6401.36, -6156.45, -80245.73, -88825.63, -81322.35, -112376.70, 0.000, 0.000, 0.000, 11:20:13.371
207, -5401.75, -5105.16, -6045.72, -6192.22, -101421.84, -86451.11, -94811.05, -133624.25, -275.93, -6022.52, -6401.36, -6156.45, -80245.73, -88825.63, -81322.35, -112376.70, 0.000, 0.000, 0.000, 11:20:13.372
208, -5401.75, -5105.16, -6045.72, -6192.22, -101421.84, -86451.11, -94811.05, -133624.25, -9250.58, 531.17, -4299.96, 212.61, -83830.53, -87887.41, -80926.43, -111669.58, 0.000, 0.000, 0.000, 11:20:13.377
209, -4648.72, -3635.13, -6163.60, -6047.40, -102119.93, -86076.19, -95006.65, -133472.50, -9250.58, 531.17, -4299.96, 212.61, -83830.53, -87887.41, -80926.43, -111669.58, 0.000, 0.000, 0.000, 11:20:13.384
210, -4648.72, -3635.13, -6163.60, -6047.40, -102119.93, -86076.19, -95006.65, -133472.50, -315.45, -5830.05, -6340.59, -5968.05, -80428.28, -88808.24, -81323.34, -112360.72, 0.000, 0.000, 0.000, 11:20:13.384
211, -4168.15, -5841.09, -6020.67, -6283.10, -101217.01, -86607.13, -94797.16, -133727.78, -315.45, -5830.05, -6340.59, -5968.05, -80428.28, -88808.24, -81323.34, -112360.72, 0.000, 0.000, 0.000, 11:20:13.389
212, -4168.15, -5841.09, -6020.67, -6283.10, -101217.01, -86607.13, -94797.16, -133727.78, -8973.04, 221.86, -4335.19, -63.08, -83556.05, -87947.36, -80935.40, -111705.97, 0.000, 0.000, 0.000, 11:20:13.394
213, -5832.53, -2843.50, -6181.89, -5956.27, -102316.72, -85939.55, -95037.09, -133408.95, -8973.04, 221.86, -4335.19, -63.08, -83556.05, -87947.36, -80935.40, -111705.97, -0.024, 0.942, 0.290, 11:20:13.394
214, -5832.53, -2843.50, -6181.89, -5956.27, -102316.72, -85939.55, -95037.09, -133408.95, -745.18, -5368.08, -6232.58, -5599.87, -80746.50, -88720.33, -81318.39, -112322.38, 0.000, 0.000, 0.000, 11:20:13.401
215, -2974.15, -6455.76, -6002.38, -6360.50, -101049.02, -86726.98, -94789.72, -133816.30, -745.18, -5368.08, -6232.58, -5599.87, -80746.50, -88720.33, -81318.39, -112322.38, 0.000, 0.000, 0.000, 11:20:13.409
216, -2974.15, -6455.76, -6002.38, -6360.50, -101049.02, -86726.98, -94789.72, -133816.30, -8402.24, -315.81, -4445.43, -537.09, -83177.09, -88028.92, -80952.63, -111759.68, 0.000, 0.000, 0.000, 11:20:13.410
217, -6819.18, -2141.70, -6172.28, -5878.96, -102450.06, -85892.95, -95052.60, -133378.33, -8402.24, -315.81, -4445.43, -537.09, -83177.09, -88028.92, -80952.63, -111759.68, 0.000, 0.000, 0.000, 11:20:13.415
218, -6819.18, -2141.70, -6172.28, -5878.96, -102450.06, -85892.95, -95052.60, -133378.33, -1386.93, -4805.76, -6039.49, -5008.56, -81118.63, -88666.80, -81291.03, -112264.31, 0.000, 0.000, 0.000, 11:20:13.415
219, -1851.55, -6914.98, -5981.10, -6425.39, -100920.67, -86858.14, -94788.41, -133899.23, -1386.93, -4805.76, -6039.49, -5008.56, -81118.63, -88666.80, -81291.03, -112264.31, 0.000, 0.000, 0.000, 11:20:13.421
220, -1851.55, -6914.98, -5981.10, -6425.39, -100920.67, -86858.14, -94788.41, -133899.23, -7572.57, -1054.09, -4631.95, -1213.74, -82716.54, -88153.60, -80979.63, -111830.55, 0.000, 0.000, 0.000, 11:20:13.421
221, -7804.33, -1685.46, -6175.18, -5814.25, -102544.05, -85807.54, -95053.98, -133332.16, -7572.57, -1054.09, -4631.95, -1213.74, -82716.54, -88153.60, -80979.63, -111830.55, 0.000, 0.000, 0.000, 11:20:13.432
222, -7804.33, -1685.46, -6175.18, -5814.25, -102544.05, -85807.54, -95053.98, -133332.16, -2367.61, -4013.57, -5806.11, -4314.58, -81595.63, -88529.73, -81258.49, -112184.14, 0.000, 0.000, 0.000, 11:20:13.432
223, -997.04, -7214.14, -5981.10, -6464.37, -100863.65, -86897.09, -94796.18, -133938.72, -2367.61, -4013.57, -5806.11, -4314.58, -81595.63, -88529.73, -81258.49, -112184.14, -0.018, 0.940, 0.288, 11:20:13.444
224, -997.04, -7214.14, -5981.10, -6464.37, -100863.65, -86897.09, -94796.18, -133938.72, -6568.13, -1879.04, -4907.33, -2018.54, -82220.95, -88257.55, -81017.12, -111909.91, 0.000, 0.000, 0.000, 11:20:13.444
225, -8510.74, -1441.69, -6169.57, -5769.48, -102574.81, -85753.96, -95042.41, -133300.34, -6568.13, -1879.04, -4907.33, -2018.54, -82220.95, -88257.55, -81017.12, -111909.91, 0.000, 0.000, 0.000, 11:20:13.444
226, -8510.74, -1441.69, -6169.57, -5769.48, -102574.81, -85753.96, -95042.41, -133300.34, -3535.44, -3124.91, -5533.20, -3506.34, -82107.81, -88375.15, -81217.72, -112092.79, 0.000, 0.000, 0.000, 11:20:13.451
227, -372.45, -7337.74, -5987.61, -6482.27, -100866.13, -86904.83, -94813.82, -133958.22, -3535.44, -3124.91, -5533.20, -3506.34, -82107.81, -88375.15, -81217.72, -112092.79, 0.000, 0.000, 0.000, 11:20:13.451
228, -372.45, -7337.74, -5987.61, -6482.27, -100866.13, -86904.83, -94813.82, -133958.22, -5428.25, -2767.97, -5216.34, -2878.77, -81704.85, -88395.02, -81067.78, -112006.13, 0.000, 0.000, 0.000, 11:20:13.457
229, -8932.72, -1384.27, -6150.26, -5757.38, -102541.95, -85789.23, -95026.90, -133309.86, -5428.25, -2767.97, -5216.34, -2878.77, -81704.85, -88395.02, -81067.78, -112006.13, 0.000, 0.000, 0.000, 11:20:13.463
230, -8932.72, -1384.27, -6150.26, -5757.38, -102541.95, -85789.23, -95026.90, -133309.86, -4670.98, -2291.88, -5219.42, -2626.17, -82592.91, -88278.86, -81166.18, -112000.74, 0.000, 0.000, 0.000, 11:20:13.463
231, -61.96, -7290.07, -5994.54, -6476.35, -100919.20, -86887.62, -94834.94, -133956.17, -4670.98, -2291.88, -5219.42, -2626.17, -82592.91, -88278.86, -81166.18, -112000.74, 0.000, 0.000, 0.000, 11:20:13.470
232, -61.96, -7290.07, -5994.54, -6476.35, -100919.20, -86887.62, -94834.94, -133956.17, -4240.28, -3647.16, -5525.17, -3737.35, -81210.44, -88516.48, -81119.30, -112098.80, 0.000, 0.000, 0.000, 11:20:13.480
233, -9088.00, -1528.03, -6136.69, -5767.06, -102463.92, -85816.59, -95003.78, -133322.67, -4240.28, -3647.16, -5525.17, -3737.35, -81210.44, -88516.48, -81119.30, -112098.80, -0.006, 0.938, 0.290, 11:20:13.480
234, -9088.00, -1528.03, -6136.69, -5767.06, -102463.92, -85816.59, -95003.78, -133322.67, -5911.63, -1378.05, -4927.20, -1790.31, -83086.28, -88129.38, -81123.15, -111911.16, 0.000, 0.000, 0.000, 11:20:13.480
235, -92.85, -7083.51, -6024.94, -6450.36, -101041.59, -86796.52, -94868.49, -133922.23, -5911.63, -1378.05, -4927.20, -1790.31, -83086.28, -88129.38, -81123.15, -111911.16, 0.000, 0.000, 0.000, 11:20:13.486
236, -92.85, -7083.51, -6024.94, -6450.36, -101041.59, -86796.52, -94868.49, -133922.23, -3095.56, -4435.61, -5822.07, -4536.02, -80785.35, -88618.52, -81178.78, -112192.09, 0.000, 0.000, 0.000, 11:20:13.486
237, -8940.21, -1863.17, -6117.54, -5803.03, -102333.88, -85888.84, -94975.98, -133359.08, -3095.56, -4435.61, -5822.07, -4536.02, -80785.35, -88618.52, -81178.78, -112192.09, 0.000, 0.000, 0.000, 11:20:13.491
238, -8940.21, -1863.17, -6117.54, -5803.03, -102333.88, -85888.84, -94975.98, -133359.08, -6979.29, -659.26, -4664.56, -994.70, -83469.23, -88047.23, -81072.61, -111830.94, 0.000, 0.000, 0.000, 11:20:13.497
239, -358.12, -6701.86, -6039.60, -6404.18, -101188.09, -86732.56, -94898.66, -133883.22, -6979.29, -659.26, -4664.56, -994.70, -83469.23, -88047.23, -81072.61, -111830.94, 0.000, 0.000, 0.000, 11:20:13.503
240, -358.12, -6701.86, -6039.60, -6404.18, -101188.09, -86732.56, -94898.66, -133883.22, -2036.33, -5145.42, -6057.10, -5210.04, -80435.72, -88739.84, -81231.73, -112275.60, 0.000, 0.000, 0.000, 11:20:13.503
241, -8519.34, -2409.29, -6099.68, -5863.78, -102166.02, -85992.86, -94943.88, -133409.95, -2036.33, -5145.42, -6057.10, -5210.04, -80435.72, -88739.84, -81231.73, -112275.60, 0.000, 0.000, 0.000, 11:20:13.509
242, -8519.34, -2409.29, -6099.68, -5863.78, -102166.02, -85992.86, -94943.88, -133409.95, -7984.00, -3.71, -4485.88, -399.52, -83793.55, -87935.63, -81032.23, -111760.55, 0.000, 0.000, 0.000, 11:20:13.514
243, -1108.36, -6193.89, -6079.25, -6331.65, -101389.63, -86555.41, -94925.66, -133788.47, -7984.00, -3.71, -4485.88, -399.52, -83793.55, -87935.63, -81032.23, -111760.55, -0.008, 0.946, 0.294, 11:20:13.515
244, -1108.36, -6193.89, -6079.25, -6331.65, -101389.63, -86555.41, -94925.66, -133788.47, -1240.99, -5651.97, -6244.12, -5725.22, -80232.59, -88786.98, -81276.84, -112332.53, 0.000, 0.000, 0.000, 11:20:13.520
245, -7875.86, -3134.16, -6087.52, -5935.35, -101972.84, -86077.55, -94903.83, -133453.20, -1240.99, -5651.97, -6244.12, -5725.22, -80232.59, -88786.98, -81276.84, -112332.53, 0.000, 0.000, 0.000, 11:20:13.525
246, -7875.86, -3134.16, -6087.52, -5935.35, -101972.84, -86077.55, -94903.83, -133453.20, -8763.34, 435.23, -4411.30, 12.18, -83995.28, -87849.17, -80997.02, -111706.70, 0.000, 0.000, 0.000, 11:20:13.530
247, -2012.71, -5540.68, -6118.43, -6244.21, -101616.66, -86363.94, -94955.91, -133685.72, -8763.34, 435.23, -4411.30, 12.18, -83995.28, -87849.17, -80997.02, -111706.70, 0.000, 0.000, 0.000, 11:20:13.530
248, -2012.71, -5540.68, -6118.43, -6244.21, -101616.66, -86363.94, -94955.91, -133685.72, -683.54, -5945.09, -6348.83, -6035.06, -80145.53, -88814.19, -81310.86, -112369.32, 0.000, 0.000, 0.000, 11:20:13.536
249, -6965.45, -3910.17, -6061.28, -6020.84, -101749.12, -86218.05, -94867.69, -133528.67, -683.54, -5945.09, -6348.83, -6035.06, -80145.53, -88814.19, -81310.86, -112369.32, 0.000, 0.000, 0.000, 11:20:13.541
250, -6965.45, -3910.17, -6061.28, -6020.84, -101749.12, -86218.05, -94867.69, -133528.67, -9184.26, 606.81, -4348.08, 243.16, -84021.23, -87846.42, -80967.88, -111680.73, 0.000, 0.000, 0.000, 11:20:13.542
251, -3066.30, -4759.71, -6136.18, -6154.51, -101835.69, -86247.40, -94987.58, -133610.94, -9184.26, 606.81, -4348.08, 243.16, -84021.23, -87846.42, -80967.88, -111680.73, 0.000, 0.000, 0.000, 11:20:13.547
252, -3066.30, -4759.71, -6136.18, -6154.51, -101835.69, -86247.40, -94987.58, -133610.94, -374.24, -6065.55, -6397.40, -6156.48, -80192.47, -88833.70, -81340.12, -112391.07, -0.016, 0.944, 0.288, 11:20:13.551
253, -5915.88, -4761.39, -6049.23, -6117.83, -101532.28, -86352.54, -94838.98, -133607.44, -374.24, -6065.55, -6397.40, -6156.48, -80192.47, -88833.70, -81340.12, -112391.07, 0.000, 0.000, 0.000, 11:20:13.556
254, -5915.88, -4761.39, -6049.23, -6117.83, -101532.28, -86352.54, -94838.98, -133607.44, -9370.68, 577.43, -4380.61, 226.42, -83943.38, -87843.47, -80953.73, -111674.23, 0.000, 0.000, 0.000, 11:20:13.561
255, -4284.18, -3979.46, -6170.18, -6053.17, -102069.48, -86055.91, -95012.75, -133505.27, -9370.68, 577.43, -4380.61, 226.42, -83943.38, -87843.47, -80953.73, -111674.23, 0.000, 0.000, 0.000, 11:20:13.562
0, -4284.18, -3979.46, -6170.18, -6053.17, -102069.48, -86055.91, -95012.75, -133505.27, -443.97, -5936.47, -6389.72, -6083.05, -80383.40, -88783.02, -81354.09, -112381.05, 0.000, 0.000, 0.000, 11:20:13.567
1, -4797.85, -5579.87, -6043.51, -6214.28, -101331.61, -86475.52, -94816.81, -133685.83, -443.97, -5936.47, -6389.72, -6083.05, -80383.40, -88783.02, -81354.09, -112381.05, 0.000, 0.000, 0.000, 11:20:13.571
3, -5426.33, -3226.52, -6182.31, -5963.53, -102265.64, -85956.05, -95034.23, -133438.02, -443.97, -5936.47, -6389.72, -6083.05, -80383.40, -88783.02, -81354.09, -112381.05, 0.000, 0.000, 0.000, 11:20:13.580
4, -5426.33, -3226.52, -6182.31, -5963.53, -102265.64, -85956.05, -95034.23, -133438.02, -729.00, -5661.03, -6307.26, -5795.45, -80651.75, -88756.59, -81346.04, -112348.91, 0.000, 0.000, 0.000, 11:20:13.585
5, -3607.46, -6275.86, -6020.24, -6298.86, -101138.24, -86622.75, -94793.21, -133769.03, -729.00, -5661.03, -6307.26, -5795.45, -80651.75, -88756.59, -81346.04, -112348.91, 0.000, 0.000, 0.000, 11:20:13.589
6, -3607.46, -6275.86, -6020.24, -6298.86, -101138.24, -86622.75, -94793.21, -133769.03, -8821.03, -204.29, -4603.83, -428.95, -83400.81, -87974.12, -80962.48, -111737.02, -0.018, 0.944, 0.286, 11:20:13.594
7, -6644.37, -2600.20, -6200.42, -5875.89, -102431.70, -85810.40, -95042.45, -133355.27, -8821.03, -204.29, -4603.83, -428.95, -83400.81, -87974.12, -80962.48, -111737.02, 0.000, 0.000, 0.000, 11:20:13.594
8, -6644.37, -2600.20, -6200.42, -5875.89, -102431.70, -85810.40, -95042.45, -133355.27, -1371.32, -5133.35, -6185.44, -5350.92, -81043.76, -88649.07, -81330.46, -112292.79, 0.000, 0.000, 0.000, 11:20:13.600
9, -2557.51, -6830.18, -6019.91, -6371.39, -101005.09, -86702.84, -94784.54, -133826.33, -1371.32, -5133.35, -6185.44, -5350.92, -81043.76, -88649.07, -81330.46, -112292.79, 0.000, 0.000, 0.000, 11:20:13.605
10, -2557.51, -6830.18, -6019.91, -6371.39, -101005.09, -86702.84, -94784.54, -133826.33, -8163.48, -862.49, -4817.36, -1056.14, -83006.76, -88056.46, -80989.35, -111797.99, 0.000, 0.000, 0.000, 11:20:13.605
11, -7670.65, -2140.07, -6217.50, -5805.19, -102557.29, -85686.70, -95044.02, -133284.55, -8163.48, -862.49, -4817.36, -1056.14, -83006.76, -88056.46, -80989.35, -111797.99, 0.000, 0.000, 0.000, 11:20:13.614
12, -7670.65, -2140.07, -6217.50, -5805.19, -102557.29, -85686.70, -95044.02, -133284.55, -2314.57, -4448.20, -6017.78, -4737.41, -81525.44, -88513.71, -81303.95, -112217.76, 0.000, 0.000, 0.000, 11:20:13.614
13, -1638.56, -7208.01, -6025.40, -6427.02, -100928.88, -86762.23, -94786.86, -133870.73, -2314.57, -4448.20, -6017.78, -4737.41, -81525.44, -88513.71, -81303.95, -112217.76, 0.000, 0.000, 0.000, 11:20:13.620
14, -1638.56, -7208.01, -6025.40, -6427.02, -100928.88, -86762.23, -94786.86, -133870.73, -7273.59, -1681.14, -5078.29, -1826.27, -82544.32, -88182.73, -81027.87, -111878.34, 0.000, 0.000, 0.000, 11:20:13.625
15, -8487.07, -1900.48, -6217.36, -5764.54, -102612.01, -85664.47, -95037.09, -133257.97, -7273.59, -1681.14, -5078.29, -1826.27, -82544.32, -88182.73, -81027.87, -111878.34, 0.000, 0.000, 0.000, 11:20:13.625
16, -8487.07, -1900.48, -6217.36, -5764.54, -102612.01, -85664.47, -95037.09, -133257.97, -3357.84, -3718.26, -5805.51, -3995.58, -82024.22, -88428.21, -81265.60, -112136.55, -0.020, 0.950, 0.288, 11:20:13.631
17, -966.85, -7421.00, -6039.93, -6461.53, -100912.58, -86788.78, -94797.97, -133894.61, -3357.84, -3718.26, -5805.51, -3995.58, -82024.22, -88428.21, -81265.60, -112136.55, 0.000, 0.000, 0.000, 11:20:13.636
18, -966.85, -7421.00, -6039.93, -6461.53, -100912.58, -86788.78, -94797.97, -133894.61, -6232.83, -2571.03, -5366.74, -2679.64, -82061.52, -88306.30, -81077.98, -111968.65, 0.000, 0.000, 0.000, 11:20:13.641
19, -9075.32, -1858.50, -6223.35, -5743.48, -102621.23, -85632.41, -95022.16, -133234.25, -6232.83, -2571.03, -5366.74, -2679.64, -82061.52, -88306.30, -81077.98, -111968.65, 0.000, 0.000, 0.000, 11:20:13.645
20, -9075.32, -1858.50, -6223.35, -5743.48, -102621.23, -85632.41, -95022.16, -133234.25, -4592.99, -2865.54, -5584.87, -3189.17, -82574.25, -88274.70, -81224.83, -112042.01, 0.000, 0.000, 0.000, 11:20:13.650
21, -611.03, -7470.80, -6065.91, -6467.39, -100961.40, -86747.05, -94816.45, -133883.80, -4592.99, -2865.54, -5584.87, -3189.17, -82574.25, -88274.70, -81224.83, -112042.01, 0.000, 0.000, 0.000, 11:20:13.650
22, -611.03, -7470.80, -6065.91, -6467.39, -100961.40, -86747.05, -94816.45, -133883.80, -5114.46, -3454.17, -5663.22, -3554.37, -81585.61, -88421.87, -81134.57, -112062.66, 0.000, 0.000, 0.000, 11:20:13.656
23, -9345.62, -2014.76, -6212.98, -5746.28, -102562.54, -85665.49, -94997.84, -133240.00, -5114.46, -3454.17, -5663.22, -3554.37, -81585.61, -88421.87, -81134.57, -112062.66, 0.000, 0.000, 0.000, 11:20:13.661
24, -9345.62, -2014.76, -6212.98, -5746.28, -102562.54, -85665.49, -94997.84, -133240.00, -5776.63, -2072.74, -5357.49, -2358.31, -83063.15, -88179.23, -81172.48, -111947.88, 0.000, 0.000, 0.000, 11:20:13.662
25, -460.13, -7349.92, -6079.38, -6451.36, -101047.77, -86723.47, -94839.39, -133869.20, -5776.63, -2072.74, -5357.49, -2358.31, -83063.15, -88179.23, -81172.48, -111947.88, 0.000, 0.000, 0.000, 11:20:13.667
26, -460.13, -7349.92, -6079.38, -6451.36, -101047.77, -86723.47, -94839.39, -133869.20, -3948.44, -4322.94, -5910.81, -4373.45, -81125.48, -88567.91, -81189.47, -112156.27, -0.018, 0.946, 0.286, 11:20:13.673
27, -9347.52, -2321.97, -6200.73, -5775.98, -102455.72, -85731.79, -94972.18, -133269.02, -3948.44, -4322.94, -5910.81, -4373.45, -81125.48, -88567.91, -81189.47, -112156.27, 0.000, 0.000, 0.000, 11:20:13.674
28, -9347.52, -2321.97, -6200.73, -5775.98, -102455.72, -85731.79, -94972.18, -133269.02, -6955.33, -1280.49, -5161.71, -1597.39, -83529.47, -88048.77, -81133.99, -111864.33, 0.000, 0.000, 0.000, 11:20:13.679
29, -736.04, -7098.42, -6118.16, -6415.02, -101202.59, -86617.14, -94876.27, -133823.33, -6955.33, -1280.49, -5161.71, -1597.39, -83529.47, -88048.77, -81133.99, -111864.33, 0.000, 0.000, 0.000, 11:20:13.685
30, -736.04, -7098.42, -6118.16, -6415.02, -101202.59, -86617.14, -94876.27, -133823.33, -2883.69, -5045.48, -6134.28, -5095.42, -80764.36, -88668.02, -81253.30, -112245.54, 0.000, 0.000, 0.000, 11:20:13.686
31, -9056.61, -2775.80, -6189.56, -5830.83, -102310.97, -85827.73, -94948.98, -133321.27, -2883.69, -5045.48, -6134.28, -5095.42, -80764.36, -88668.02, -81253.30, -112245.54, 0.000, 0.000, 0.000, 11:20:13.690
32, -9056.61, -2775.80, -6189.56, -5830.83, -102310.97, -85827.73, -94948.98, -133321.27, -7938.13, -660.67, -4998.19, -907.82, -83868.03, -87990.68, -81092.75, -111796.18, 0.000, 0.000, 0.000, 11:20:13.695
33, -1111.66, -6684.87, -6137.43, -6361.55, -101375.66, -86552.03, -94913.28, -133782.27, -7938.13, -660.67, -4998.19, -907.82, -83868.03, -87990.68, -81092.75, -111796.18, 0.000, 0.000, 0.000, 11:20:13.702
34, -1111.66, -6684.87, -6137.43, -6361.55, -101375.66, -86552.03, -94913.28, -133782.27, -1932.67, -5648.75, -6294.07, -5655.04, -80484.02, -88784.55, -81307.04, -112320.82, 0.000, 0.000, 0.000, 11:20:13.703
35, -8484.68, -3366.80, -6168.46, -5903.54, -102123.75, -85961.07, -94920.14, -133389.97, -1932.67, -5648.75, -6294.07, -5655.04, -80484.02, -88784.55, -81307.04, -112320.82, 0.000, 0.000, 0.000, 11:20:13.708
36, -8484.68, -3366.80, -6168.46, -5903.54, -102123.75, -85961.07, -94920.14, -133389.97, -8759.22, -150.90, -4887.77, -428.30, -84114.53, -87909.66, -81062.89, -111741.28, -0.016, 0.948, 0.288, 11:20:13.713
37, -1965.32, -6151.00, -6178.18, -6285.87, -101594.93, -86388.04, -94952.66, -133699.88, -8759.22, -150.90, -4887.77, -428.30, -84114.53, -87909.66, -81062.89, -111741.28, 0.000, 0.000, 0.000, 11:20:13.714
38, -1965.32, -6151.00, -6178.18, -6285.87, -101594.93, -86388.04, -94952.66, -133699.88, -1249.62, -6021.98, -6414.48, -6040.42, -80350.41, -88828.29, -81358.85, -112375.34, 0.000, 0.000, 0.000, 11:20:13.718
39, -7694.07, -4062.07, -6156.03, -5990.80, -101921.36, -86086.13, -94895.45, -133465.95, -1249.62, -6021.98, -6414.48, -6040.42, -80350.41, -88828.29, -81358.85, -112375.34, 0.000, 0.000, 0.000, 11:20:13.723
40, -7694.07, -4062.07, -6156.03, -5990.80, -101921.36, -86086.13, -94895.45, -133465.95, -9319.18, 166.72, -4834.97, -129.17, -84222.31, -87857.75, -81042.46, -111708.27, 0.000, 0.000, 0.000, 11:20:13.729
41, -2969.18, -5491.22, -6217.00, -6198.00, -101830.70, -86216.62, -94993.57, -133614.13, -9319.18, 166.72, -4834.97, -129.17, -84222.31, -87857.75, -81042.46, -111708.27, 0.000, 0.000, 0.000, 11:20:13.730
42, -2969.18, -5491.22, -6217.00, -6198.00, -101830.70, -86216.62, -94993.57, -133614.13, -827.46, -6194.94, -6473.71, -6234.17, -80340.19, -88845.95, -81397.85, -112406.63, 0.000, 0.000, 0.000, 11:20:13.736
43, -6666.01, -4793.31, -6128.74, -6082.85, -101694.80, -86248.74, -94867.82, -133560.55, -827.46, -6194.94, -6473.71, -6234.17, -80340.19, -88845.95, -81397.85, -112406.63, 0.000, 0.000, 0.000, 11:20:13.742
44, -6666.01, -4793.31, -6128.74, -6082.85, -101694.80, -86248.74, -94867.82, -133560.55, -9541.40, 244.33, -4798.25, -12.67, -84153.82, -87876.20, -81020.78, -111694.10, 0.000, 0.000, 0.000, 11:20:13.743
45, -3985.27, -4716.22, -6217.41, -6096.46, -102033.97, -86112.91, -95018.83, -133546.70, -9541.40, 244.33, -4798.25, -12.67, -84153.82, -87876.20, -81020.78, -111694.10, 0.000, 0.000, 0.000, 11:20:13.749
46, -3985.27, -4716.22, -6217.41, -6096.46, -102033.97, -86112.91, -95018.83, -133546.70, -645.61, -6179.68, -6465.26, -6223.13, -80429.28, -88845.48, -81412.54, -112406.12, -0.020, 0.946, 0.286, 11:20:13.756
47, -5495.82, -5516.14, -6102.45, -6175.32, -101471.69, -86402.88, -94843.95, -133657.13, -645.61, -6179.68, -6465.26, -6223.13, -80429.28, -88845.48, -81412.54, -112406.12, 0.000, 0.000, 0.000, 11:20:13.757
48, -5495.82, -5516.14, -6102.45, -6175.32, -101471.69, -86402.88, -94843.95, -133657.13, -9500.07, 136.06, -4800.75, -104.90, -83971.99, -87900.49, -81018.12, -111705.41, 0.000, 0.000, 0.000, 11:20:13.766
49, -5199.17, -3936.48, -6238.93, -5997.22, -102247.63, -85953.56, -95049.09, -133466.08, -9500.07, 136.06, -4800.75, -104.90, -83971.99, -87900.49, -81018.12, -111705.41, 0.000, 0.000, 0.000, 11:20:13.767
50, -5199.17, -3936.48, -6238.93, -5997.22, -102247.63, -85953.56, -95049.09, -133466.08, -802.45, -5929.83, -6421.43, -6032.42, -80663.04, -88780.88, -81423.38, -112386.31, 0.000, 0.000, 0.000, 11:20:13.767
51, -4289.59, -6182.31, -6084.03, -6263.14, -101275.39, -86533.34, -94829.13, -133746.70, -802.45, -5929.83, -6421.43, -6032.42, -80663.04, -88780.88, -81423.38, -112386.31, 0.000, 0.000, 0.000, 11:20:13.772
52, -4289.59, -6182.31, -6084.03, -6263.14, -101275.39, -86533.34, -94829.13, -133746.70, -9163.90, -185.79, -4861.06, -394.49, -83669.53, -87963.14, -81029.36, -111742.58, 0.000, 0.000, 0.000, 11:20:13.779
53, -6228.94, -3191.34, -6234.46, -5909.11, -102410.02, -85882.04, -95069.21, -133418.41, -9163.90, -185.79, -4861.06, -394.49, -83669.53, -87963.14, -81029.36, -111742.58, 0.000, 0.000, 0.000, 11:20:13.779
54, -6228.94, -3191.34, -6234.46, -5909.11, -102410.02, -85882.04, -95069.21, -133418.41, -1199.80, -5535.36, -6307.26, -5634.03, -80960.59, -88743.44, -81409.72, -112344.06, 0.000, 0.000, 0.000, 11:20:13.785
55, -3071.08, -6727.38, -6057.37, -6341.75, -101101.74, -86685.07, -94818.65, -133838.47, -1199.80, -5535.36, -6307.26, -5634.03, -80960.59, -88743.44, -81409.72, -112344.06, -0.016, 0.952, 0.290, 11:20:13.785
56, -3071.08, -6727.38, -6057.37, -6341.75, -101101.74, -86685.07, -94818.65, -133838.47, -8545.59, -733.32, -4956.61, -894.58, -83264.78, -88065.05, -81051.71, -111800.78, 0.000, 0.000, 0.000, 11:20:13.793
57, -7336.98, -2583.50, -6244.16, -5831.70, -102547.30, -85766.48, -95081.73, -133357.81, -8545.59, -733.32, -4956.61, -894.58, -83264.78, -88065.05, -81051.71, -111800.78, 0.000, 0.000, 0.000, 11:20:13.794
58, -7336.98, -2583.50, -6244.16, -5831.70, -102547.30, -85766.48, -95081.73, -133357.81, -1939.62, -4891.57, -6159.09, -5084.04, -81382.54, -88621.96, -81391.17, -112280.38, 0.000, 0.000, 0.000, 11:20:13.806
59, -2032.49, -7128.62, -6049.90, -6400.65, -100991.33, -86758.90, -94819.83, -133897.73, -1939.62, -4891.57, -6159.09, -5084.04, -81382.54, -88621.96, -81391.17, -112280.38, 0.000, 0.000, 0.000, 11:20:13.807
60, -2032.49, -7128.62, -6049.90, -6400.65, -100991.33, -86758.90, -94819.83, -133897.73, -7695.71, -1415.60, -5124.16, -1567.64, -82798.39, -88155.99, -81086.65, -111872.98, 0.000, 0.000, 0.000, 11:20:13.807
61, -8207.99, -2142.26, -6245.28, -5771.82, -102625.80, -85680.41, -95082.40, -133311.56, -7695.71, -1415.60, -5124.16, -1567.64, -82798.39, -88155.99, -81086.65, -111872.98, 0.000, 0.000, 0.000, 11:20:13.812
62, -8207.99, -2142.26, -6245.28, -5771.82, -102625.80, -85680.41, -95082.40, -133311.56, -2936.46, -4096.87, -5971.67, -4377.14, -81869.70, -88478.23, -81364.17, -112203.02, 0.000, 0.000, 0.000, 11:20:13.812
63, -1183.68, -7368.57, -6051.13, -6441.75, -100941.97, -86803.31, -94832.81, -133938.38, -2936.46, -4096.87, -5971.67, -4377.14, -81869.70, -88478.23, -81364.17, -112203.02, 0.000, 0.000, 0.000, 11:20:13.817
