%OpenBCI Raw EEG Data
%
%Sample Rate = 250.0 Hz
%First Column = SampleIndex
%Last Column = Timestamp 
%Other Columns = EEG data in microvolts followed by Accel Data (in G) interleaved with Aux Data
0, 0.00, 0.00, 0.00, 0.00, 0.00, 0.00, 0.00, 0.00, -9.45, -11.78, -6.95, -12.03, -12.76, -12.47, -10.62, -9.07, 0.028, 0.458, 0.140, 01:43:59.928
1, -20.59, -26.71, -18.46, -22.04, -25.08, -14.98, -16.81, -21.97, -9.45, -11.78, -6.95, -12.03, -12.76, -12.47, -10.62, -9.07, 0.000, 0.000, 0.000, 01:43:59.932
2, -20.59, -26.71, -18.46, -22.04, -25.08, -14.98, -16.81, -21.97, -18.86, -23.60, -13.77, -23.96, -25.30, -24.77, -21.26, -17.99, 0.000, 0.000, 0.000, 01:43:59.935
3, -20.90, -26.69, -18.33, -22.04, -25.19, -15.13, -16.94, -22.11, -18.86, -23.60, -13.77, -23.96, -25.30, -24.77, -21.26, -17.99, 0.000, 0.000, 0.000, 01:43:59.941
4, -20.90, -26.69, -18.33, -22.04, -25.19, -15.13, -16.94, -22.11, -19.07, -23.47, -13.88, -24.03, -25.48, -24.99, -21.14, -17.79, 0.000, 0.000, 0.000, 01:43:59.944
5, -20.81, -26.71, -18.42, -21.99, -25.10, -15.13, -16.90, -21.95, -19.07, -23.47, -13.88, -24.03, -25.48, -24.99, -21.14, -17.79, 0.000, 0.000, 0.000, 01:43:59.947
6, -20.81, -26.71, -18.42, -21.99, -25.10, -15.13, -16.90, -21.95, -18.93, -23.36, -13.93, -23.98, -25.48, -24.79, -21.10, -17.90, 0.028, 0.944, 0.268, 01:43:59.950
7, -20.97, -26.62, -18.53, -22.13, -24.99, -14.86, -16.79, -22.02, -18.93, -23.36, -13.93, -23.98, -25.48, -24.79, -21.10, -17.90, 0.000, 0.000, 0.000, 01:43:59.954
8, -20.97, -26.62, -18.53, -22.13, -24.99, -14.86, -16.79, -22.02, -19.00, -23.31, -13.93, -23.74, -25.39, -24.83, -21.35, -17.97, 0.000, 0.000, 0.000, 01:43:59.957
9, -20.97, -26.40, -18.55, -22.06, -25.01, -15.20, -16.76, -21.99, -19.00, -23.31, -13.93, -23.74, -25.39, -24.83, -21.35, -17.97, 0.000, 0.000, 0.000, 01:43:59.961
10, -20.97, -26.40, -18.55, -22.06, -25.01, -15.20, -16.76, -21.99, -18.93, -23.20, -13.95, -23.87, -25.30, -24.79, -21.14, -17.97, 0.000, 0.000, 0.000, 01:43:59.966
11, -20.90, -26.35, -18.55, -22.13, -25.15, -15.00, -16.79, -22.20, -18.93, -23.20, -13.95, -23.87, -25.30, -24.79, -21.14, -17.97, 0.000, 0.000, 0.000, 01:43:59.969
12, -20.90, -26.35, -18.55, -22.13, -25.15, -15.00, -16.79, -22.20, -18.84, -23.22, -13.84, -24.05, -25.39, -25.01, -21.19, -18.06, 0.000, 0.000, 0.000, 01:43:59.974
13, -20.83, -26.80, -18.66, -22.13, -25.06, -14.75, -16.72, -22.13, -18.84, -23.22, -13.84, -24.05, -25.39, -25.01, -21.19, -18.06, 0.000, 0.000, 0.000, 01:43:59.978
14, -20.83, -26.80, -18.66, -22.13, -25.06, -14.75, -16.72, -22.13, -18.86, -23.36, -13.88, -23.80, -25.53, -24.79, -21.30, -18.13, 0.000, 0.000, 0.000, 01:43:59.982
15, -20.85, -26.62, -18.55, -22.13, -24.97, -14.77, -16.96, -22.08, -18.86, -23.36, -13.88, -23.80, -25.53, -24.79, -21.30, -18.13, 0.000, 0.000, 0.000, 01:43:59.986
16, -20.85, -26.62, -18.55, -22.13, -24.97, -14.77, -16.96, -22.08, -18.86, -23.34, -14.06, -23.85, -25.53, -24.70, -21.19, -18.15, 0.026, 0.956, 0.282, 01:43:59.989
17, -20.99, -26.82, -18.55, -21.97, -25.06, -14.89, -16.65, -22.13, -18.86, -23.34, -14.06, -23.85, -25.53, -24.70, -21.19, -18.15, 0.000, 0.000, 0.000, 01:43:59.993
18, -20.99, -26.82, -18.55, -21.97, -25.06, -14.89, -16.65, -22.13, -18.86, -23.42, -13.93, -24.03, -25.48, -24.88, -21.32, -17.95, 0.000, 0.000, 0.000, 01:43:59.996
19, -20.70, -26.58, -18.51, -22.06, -25.03, -14.98, -16.79, -22.22, -18.86, -23.42, -13.93, -24.03, -25.48, -24.88, -21.32, -17.95, 0.000, 0.000, 0.000, 01:44:00.001
20, -20.70, -26.58, -18.51, -22.06, -25.03, -14.98, -16.79, -22.22, -18.89, -23.72, -13.93, -23.87, -25.66, -24.77, -21.32, -18.08, 0.000, 0.000, 0.000, 01:44:00.007
21, -20.85, -26.46, -18.53, -22.08, -24.99, -15.13, -16.90, -22.20, -18.89, -23.72, -13.93, -23.87, -25.66, -24.77, -21.32, -18.08, 0.000, 0.000, 0.000, 01:44:00.010
22, -20.85, -26.46, -18.53, -22.08, -24.99, -15.13, -16.90, -22.20, -19.16, -23.51, -13.84, -24.07, -25.50, -24.92, -21.17, -18.13, 0.000, 0.000, 0.000, 01:44:00.014
23, -20.56, -26.73, -18.51, -21.97, -25.03, -15.22, -16.61, -22.17, -19.16, -23.51, -13.84, -24.07, -25.50, -24.92, -21.17, -18.13, 0.000, 0.000, 0.000, 01:44:00.017
24, -20.56, -26.73, -18.51, -21.97, -25.03, -15.22, -16.61, -22.17, -19.04, -23.56, -14.04, -24.01, -25.32, -24.79, -21.35, -18.24, 0.000, 0.000, 0.000, 01:44:00.021
25, -20.54, -26.82, -18.48, -21.95, -25.15, -14.98, -16.76, -22.24, -19.04, -23.56, -14.04, -24.01, -25.32, -24.79, -21.35, -18.24, 0.000, 0.000, 0.000, 01:44:00.025
26, -20.54, -26.82, -18.48, -21.95, -25.15, -14.98, -16.76, -22.24, -18.80, -23.54, -13.81, -23.89, -25.15, -24.83, -21.28, -18.19, 0.020, 0.944, 0.282, 01:44:00.029
27, -20.65, -26.76, -18.57, -22.35, -24.92, -15.24, -16.45, -21.90, -18.80, -23.54, -13.81, -23.89, -25.15, -24.83, -21.28, -18.19, 0.000, 0.000, 0.000, 01:44:00.034
28, -20.65, -26.76, -18.57, -22.35, -24.92, -15.24, -16.45, -21.90, -18.82, -23.34, -14.01, -24.10, -25.37, -24.88, -21.28, -17.93, 0.000, 0.000, 0.000, 01:44:00.039
29, -20.88, -26.42, -18.53, -22.17, -25.06, -15.07, -16.63, -22.08, -18.82, -23.34, -14.01, -24.10, -25.37, -24.88, -21.28, -17.93, 0.000, 0.000, 0.000, 01:44:00.042
30, -20.88, -26.42, -18.53, -22.17, -25.06, -15.07, -16.63, -22.08, -18.80, -23.36, -13.81, -24.14, -25.50, -24.81, -21.23, -17.90, 0.000, 0.000, 0.000, 01:44:00.046
31, -20.83, -26.67, -18.69, -22.13, -24.94, -14.93, -16.56, -22.08, -18.80, -23.36, -13.81, -24.14, -25.50, -24.81, -21.23, -17.90, 0.000, 0.000, 0.000, 01:44:00.050
32, -20.83, -26.67, -18.69, -22.13, -24.94, -14.93, -16.56, -22.08, -19.04, -23.49, -13.79, -24.07, -25.35, -25.06, -21.12, -18.08, 0.000, 0.000, 0.000, 01:44:00.054
33, -20.59, -26.62, -18.71, -22.33, -24.94, -15.00, -16.58, -22.22, -19.04, -23.49, -13.79, -24.07, -25.35, -25.06, -21.12, -18.08, 0.000, 0.000, 0.000, 01:44:00.060
34, -20.59, -26.62, -18.71, -22.33, -24.94, -15.00, -16.58, -22.22, -18.84, -23.47, -13.97, -24.03, -25.37, -24.90, -21.26, -17.95, 0.000, 0.000, 0.000, 01:44:00.063
35, -20.70, -26.51, -18.86, -22.11, -25.03, -14.73, -16.65, -22.04, -18.84, -23.47, -13.97, -24.03, -25.37, -24.90, -21.26, -17.95, 0.000, 0.000, 0.000, 01:44:00.067
36, -20.70, -26.51, -18.86, -22.11, -25.03, -14.73, -16.65, -22.04, -18.86, -23.49, -13.93, -24.07, -25.24, -24.74, -21.32, -18.26, 0.026, 0.950, 0.286, 01:44:00.071
37, -20.81, -26.33, -18.51, -21.95, -24.99, -14.73, -16.65, -22.15, -18.86, -23.49, -13.93, -24.07, -25.24, -24.74, -21.32, -18.26, 0.000, 0.000, 0.000, 01:44:00.076
38, -20.81, -26.33, -18.51, -21.95, -24.99, -14.73, -16.65, -22.15, -18.86, -23.65, -13.86, -23.98, -25.44, -24.81, -21.28, -18.06, 0.000, 0.000, 0.000, 01:44:00.081
39, -20.90, -26.55, -18.44, -21.90, -25.03, -14.82, -16.94, -22.02, -18.86, -23.65, -13.86, -23.98, -25.44, -24.81, -21.28, -18.06, 0.000, 0.000, 0.000, 01:44:00.084
40, -20.90, -26.55, -18.44, -21.90, -25.03, -14.82, -16.94, -22.02, -19.09, -23.38, -13.90, -23.94, -25.59, -24.88, -21.32, -17.97, 0.000, 0.000, 0.000, 01:44:00.088
41, -20.83, -26.58, -18.60, -22.13, -25.17, -15.04, -16.79, -22.11, -19.09, -23.38, -13.90, -23.94, -25.59, -24.88, -21.32, -17.97, 0.000, 0.000, 0.000, 01:44:00.092
42, -20.83, -26.58, -18.60, -22.13, -25.17, -15.04, -16.79, -22.11, -19.09, -23.40, -13.90, -23.83, -25.48, -24.97, -21.26, -17.99, 0.000, 0.000, 0.000, 01:44:00.096
43, -20.97, -26.49, -18.42, -22.11, -24.99, -15.20, -16.56, -21.88, -19.09, -23.40, -13.90, -23.83, -25.48, -24.97, -21.26, -17.99, 0.000, 0.000, 0.000, 01:44:00.099
44, -20.97, -26.49, -18.42, -22.11, -24.99, -15.20, -16.56, -21.88, -19.00, -23.56, -13.86, -24.18, -25.39, -24.92, -21.26, -18.02, 0.000, 0.000, 0.000, 01:44:00.103
45, -20.70, -26.62, -18.46, -22.24, -24.92, -14.91, -16.63, -22.11, -19.00, -23.56, -13.86, -24.18, -25.39, -24.92, -21.26, -18.02, 0.000, 0.000, 0.000, 01:44:00.106
46, -20.70, -26.62, -18.46, -22.24, -24.92, -14.91, -16.63, -22.11, -18.89, -23.67, -14.06, -24.18, -25.53, -24.99, -21.19, -18.02, 0.032, 0.936, 0.282, 01:44:00.109
47, -20.88, -26.49, -18.42, -22.11, -24.81, -14.93, -16.74, -22.06, -18.89, -23.67, -14.06, -24.18, -25.53, -24.99, -21.19, -18.02, 0.000, 0.000, 0.000, 01:44:00.114
48, -20.88, -26.49, -18.42, -22.11, -24.81, -14.93, -16.74, -22.06, -18.78, -23.47, -13.79, -23.98, -25.35, -25.03, -21.19, -18.22, 0.000, 0.000, 0.000, 01:44:00.117
49, -20.90, -26.67, -18.44, -21.97, -25.06, -15.09, -16.63, -22.11, -18.78, -23.47, -13.79, -23.98, -25.35, -25.03, -21.19, -18.22, 0.000, 0.000, 0.000, 01:44:00.122
50, -20.90, -26.67, -18.44, -21.97, -25.06, -15.09, -16.63, -22.11, -19.13, -23.31, -14.08, -24.05, -25.15, -24.81, -21.32, -18.04, 0.000, 0.000, 0.000, 01:44:00.127
51, -20.76, -26.67, -18.55, -22.13, -25.26, -15.00, -16.76, -22.11, -19.13, -23.31, -14.08, -24.05, -25.15, -24.81, -21.32, -18.04, 0.000, 0.000, 0.000, 01:44:00.130
52, -20.76, -26.67, -18.55, -22.13, -25.26, -15.00, -16.76, -22.11, -18.93, -23.45, -13.88, -24.07, -25.32, -24.83, -21.35, -18.19, 0.000, 0.000, 0.000, 01:44:00.134
53, -20.88, -26.76, -18.33, -21.84, -24.94, -14.86, -16.63, -22.22, -18.93, -23.45, -13.88, -24.07, -25.32, -24.83, -21.35, -18.19, 0.000, 0.000, 0.000, 01:44:00.138
54, -20.88, -26.76, -18.33, -21.84, -24.94, -14.86, -16.63, -22.22, -18.82, -23.49, -14.17, -23.92, -25.39, -24.74, -21.30, -18.10, 0.000, 0.000, 0.000, 01:44:00.143
55, -20.85, -26.58, -18.46, -22.04, -24.86, -14.98, -16.90, -22.06, -18.82, -23.49, -14.17, -23.92, -25.39, -24.74, -21.30, -18.10, 0.000, 0.000, 0.000, 01:44:00.146
56, -20.85, -26.58, -18.46, -22.04, -24.86, -14.98, -16.90, -22.06, -18.78, -23.29, -13.97, -24.03, -25.46, -24.90, -21.44, -18.15, 0.032, 0.942, 0.280, 01:44:00.151
57, -20.68, -26.51, -18.48, -22.11, -24.99, -14.86, -16.76, -21.99, -18.78, -23.29, -13.97, -24.03, -25.46, -24.90, -21.44, -18.15, 0.000, 0.000, 0.000, 01:44:00.155
58, -20.68, -26.51, -18.48, -22.11, -24.99, -14.86, -16.76, -21.99, -18.62, -23.38, -14.04, -24.07, -25.30, -24.74, -21.30, -18.15, 0.000, 0.000, 0.000, 01:44:00.160
59, -20.70, -26.53, -18.55, -22.35, -25.01, -15.04, -16.50, -22.53, -18.62, -23.38, -14.04, -24.07, -25.30, -24.74, -21.30, -18.15, 0.000, 0.000, 0.000, 01:44:00.164
60, -20.70, -26.53, -18.55, -22.35, -25.01, -15.04, -16.50, -22.53, -19.00, -23.42, -13.95, -24.07, -25.32, -24.97, -21.19, -18.13, 0.000, 0.000, 0.000, 01:44:00.168
61, -20.65, -26.73, -18.62, -22.11, -24.99, -14.91, -16.63, -22.33, -19.00, -23.42, -13.95, -24.07, -25.32, -24.97, -21.19, -18.13, 0.000, 0.000, 0.000, 01:44:00.173
62, -20.65, -26.73, -18.62, -22.11, -24.99, -14.91, -16.63, -22.33, -18.71, -23.58, -13.88, -24.05, -25.46, -24.79, -21.19, -17.97, 0.000, 0.000, 0.000, 01:44:00.177
63, -20.90, -26.49, -18.53, -22.31, -24.92, -14.98, -16.67, -21.99, -18.71, -23.58, -13.88, -24.05, -25.46, -24.79, -21.19, -17.97, 0.000, 0.000, 0.000, 01:44:00.180
64, -20.90, -26.49, -18.53, -22.31, -24.92, -14.98, -16.67, -21.99, -18.80, -23.38, -13.95, -24.01, -25.21, -24.74, -21.23, -17.97, 0.000, 0.000, 0.000, 01:44:00.185
65, -20.81, -26.22, -18.66, -22.17, -24.90, -14.98, -16.58, -22.31, -18.80, -23.38, -13.95, -24.01, -25.21, -24.74, -21.23, -17.97, 0.030, 0.952, 0.280, 01:44:00.189
66, -20.81, -26.22, -18.66, -22.17, -24.90, -14.98, -16.58, -22.31, -18.98, -23.34, -13.86, -24.14, -25.37, -24.83, -21.12, -18.04, 0.000, 0.000, 0.000, 01:44:00.194
67, -20.45, -26.51, -18.75, -22.22, -25.08, -15.07, -16.76, -22.11, -18.98, -23.34, -13.86, -24.14, -25.37, -24.83, -21.12, -18.04, 0.000, 0.000, 0.000, 01:44:00.197
68, -20.45, -26.51, -18.75, -22.22, -25.08, -15.07, -16.76, -22.11, -18.86, -23.31, -13.99, -24.16, -25.50, -24.79, -21.12, -18.04, 0.000, 0.000, 0.000, 01:44:00.201
69, -20.79, -26.55, -18.89, -22.04, -24.97, -15.02, -16.85, -22.11, -18.86, -23.31, -13.99, -24.16, -25.50, -24.79, -21.12, -18.04, 0.000, 0.000, 0.000, 01:44:00.206
70, -20.79, -26.55, -18.89, -22.04, -24.97, -15.02, -16.85, -22.11, -18.66, -23.47, -13.68, -24.14, -25.32, -24.97, -21.14, -17.93, 0.000, 0.000, 0.000, 01:44:00.211
71, -20.85, -26.73, -18.53, -22.04, -24.97, -14.98, -16.79, -22.02, -18.66, -23.47, -13.68, -24.14, -25.32, -24.97, -21.14, -17.93, 0.000, 0.000, 0.000, 01:44:00.214
72, -20.85, -26.73, -18.53, -22.04, -24.97, -14.98, -16.79, -22.02, -18.71, -23.29, -13.86, -24.05, -25.55, -24.97, -21.19, -18.17, 0.000, 0.000, 0.000, 01:44:00.218
73, -20.70, -26.73, -18.42, -22.15, -24.99, -14.91, -16.74, -22.02, -18.71, -23.29, -13.86, -24.05, -25.55, -24.97, -21.19, -18.17, 0.000, 0.000, 0.000, 01:44:00.223
74, -20.70, -26.73, -18.42, -22.15, -24.99, -14.91, -16.74, -22.02, -18.89, -23.38, -14.13, -24.07, -25.41, -24.83, -21.21, -18.10, 0.000, 0.000, 0.000, 01:44:00.226
75, -20.65, -26.71, -18.53, -22.08, -24.99, -14.73, -16.76, -21.93, -18.89, -23.38, -14.13, -24.07, -25.41, -24.83, -21.21, -18.10, 0.030, 0.942, 0.284, 01:44:00.231
76, -20.65, -26.71, -18.53, -22.08, -24.99, -14.73, -16.76, -21.93, -18.57, -23.34, -13.99, -24.03, -25.53, -24.59, -21.28, -18.06, 0.000, 0.000, 0.000, 01:44:00.236
77, -20.74, -26.62, -18.62, -22.02, -24.74, -14.89, -16.52, -22.02, -18.57, -23.34, -13.99, -24.03, -25.53, -24.59, -21.28, -18.06, 0.000, 0.000, 0.000, 01:44:00.239
78, -20.74, -26.62, -18.62, -22.02, -24.74, -14.89, -16.52, -22.02, -18.80, -23.63, -13.81, -23.94, -25.28, -24.70, -21.30, -17.95, 0.000, 0.000, 0.000, 01:44:00.243
79, -20.79, -26.67, -18.51, -22.15, -25.19, -14.84, -16.72, -22.15, -18.80, -23.63, -13.81, -23.94, -25.28, -24.70, -21.30, -17.95, 0.000, 0.000, 0.000, 01:44:00.248
80, -20.79, -26.67, -18.51, -22.15, -25.19, -14.84, -16.72, -22.15, -18.93, -23.65, -13.86, -24.03, -25.37, -24.61, -20.97, -18.17, 0.000, 0.000, 0.000, 01:44:00.252
81, -20.65, -26.64, -18.44, -22.13, -25.08, -14.93, -16.74, -22.11, -18.93, -23.65, -13.86, -24.03, -25.37, -24.61, -20.97, -18.17, 0.000, 0.000, 0.000, 01:44:00.257
82, -20.65, -26.64, -18.44, -22.13, -25.08, -14.93, -16.74, -22.11, -19.00, -23.49, -13.93, -23.87, -25.64, -24.70, -21.32, -18.19, 0.000, 0.000, 0.000, 01:44:00.260
83, -21.06, -26.67, -18.46, -22.11, -24.99, -14.82, -16.88, -22.20, -19.00, -23.49, -13.93, -23.87, -25.64, -24.70, -21.32, -18.19, 0.000, 0.000, 0.000, 01:44:00.264
84, -21.06, -26.67, -18.46, -22.11, -24.99, -14.82, -16.88, -22.20, -18.84, -23.51, -13.77, -23.94, -25.39, -24.74, -21.19, -18.26, 0.000, 0.000, 0.000, 01:44:00.267
85, -20.72, -26.60, -18.51, -22.04, -25.15, -15.07, -16.79, -22.17, -18.84, -23.51, -13.77, -23.94, -25.39, -24.74, -21.19, -18.26, 0.028, 0.948, 0.294, 01:44:00.270
86, -20.72, -26.60, -18.51, -22.04, -25.15, -15.07, -16.79, -22.17, -18.80, -23.51, -13.93, -24.03, -25.46, -24.72, -21.44, -17.95, 0.000, 0.000, 0.000, 01:44:00.274
85, -20.72, -26.60, -18.51, -22.04, -25.15, -15.07, -16.79, -22.17, -18.80, -23.51, -13.93, -24.03, -25.46, -24.72, -21.44, -17.95, 0.028, 0.948, 0.294, 01:44:00.276
89, -20.63, -26.62, -18.55, -22.20, -24.90, -14.86, -16.74, -22.40, -18.80, -23.51, -13.93, -24.03, -25.46, -24.72, -21.44, -17.95, 0.000, 0.000, 0.000, 01:44:00.280
90, -20.63, -26.62, -18.55, -22.20, -24.90, -14.86, -16.74, -22.40, -19.04, -23.42, -14.01, -23.89, -25.46, -24.81, -21.32, -18.10, 0.000, 0.000, 0.000, 01:44:00.285
91, -20.83, -26.80, -18.44, -22.04, -24.59, -14.80, -16.65, -22.24, -19.04, -23.42, -14.01, -23.89, -25.46, -24.81, -21.32, -18.10, 0.000, 0.000, 0.000, 01:44:00.290
92, -20.83, -26.80, -18.44, -22.04, -24.59, -14.80, -16.65, -22.24, -19.00, -23.49, -13.95, -24.03, -25.28, -25.01, -21.17, -18.06, 0.000, 0.000, 0.000, 01:44:00.293
93, -20.85, -26.44, -18.53, -21.95, -24.92, -14.93, -16.92, -22.15, -19.00, -23.49, -13.95, -24.03, -25.28, -25.01, -21.17, -18.06, 0.000, 0.000, 0.000, 01:44:00.297
94, -20.85, -26.44, -18.53, -21.95, -24.92, -14.93, -16.92, -22.15, -18.82, -23.63, -13.75, -24.03, -25.46, -24.99, -21.21, -17.99, 0.000, 0.000, 0.000, 01:44:00.302
95, -20.88, -26.51, -18.55, -22.08, -24.79, -14.80, -16.85, -22.02, -18.82, -23.63, -13.75, -24.03, -25.46, -24.99, -21.21, -17.99, 0.024, 0.932, 0.294, 01:44:00.305
96, -20.88, -26.51, -18.55, -22.08, -24.79, -14.80, -16.85, -22.02, -18.64, -23.58, -13.77, -24.12, -25.19, -24.83, -21.12, -18.08, 0.000, 0.000, 0.000, 01:44:00.310
97, -20.68, -26.60, -18.71, -21.99, -25.01, -15.04, -16.72, -22.26, -18.64, -23.58, -13.77, -24.12, -25.19, -24.83, -21.12, -18.08, 0.000, 0.000, 0.000, 01:44:00.316
98, -20.68, -26.60, -18.71, -21.99, -25.01, -15.04, -16.72, -22.26, -19.11, -23.49, -14.01, -24.07, -25.41, -24.86, -21.10, -17.90, 0.000, 0.000, 0.000, 01:44:00.319
99, -20.74, -26.64, -18.46, -22.08, -25.01, -15.07, -16.83, -21.93, -19.11, -23.49, -14.01, -24.07, -25.41, -24.86, -21.10, -17.90, 0.000, 0.000, 0.000, 01:44:00.321
100, -20.74, -26.64, -18.46, -22.08, -25.01, -15.07, -16.83, -21.93, -18.93, -23.54, -13.95, -24.10, -25.30, -24.77, -21.46, -17.93, 0.000, 0.000, 0.000, 01:44:00.326
101, -20.56, -26.67, -18.75, -21.84, -25.19, -14.91, -16.56, -22.13, -18.93, -23.54, -13.95, -24.10, -25.30, -24.77, -21.46, -17.93, 0.000, 0.000, 0.000, 01:44:00.328
102, -20.56, -26.67, -18.75, -21.84, -25.19, -14.91, -16.56, -22.13, -19.02, -23.34, -14.08, -23.98, -25.39, -24.99, -21.37, -18.06, 0.000, 0.000, 0.000, 01:44:00.332
103, -20.65, -26.55, -18.33, -22.06, -25.06, -14.91, -16.54, -21.99, -19.02, -23.34, -14.08, -23.98, -25.39, -24.99, -21.37, -18.06, 0.000, 0.000, 0.000, 01:44:00.336
104, -20.65, -26.55, -18.33, -22.06, -25.06, -14.91, -16.54, -21.99, -18.73, -23.42, -13.97, -24.01, -25.44, -24.79, -21.10, -18.10, 0.000, 0.000, 0.000, 01:44:00.341
105, -20.63, -26.60, -18.44, -22.11, -25.08, -14.82, -16.67, -22.02, -18.73, -23.42, -13.97, -24.01, -25.44, -24.79, -21.10, -18.10, 0.022, 0.944, 0.288, 01:44:00.344
106, -20.63, -26.60, -18.44, -22.11, -25.08, -14.82, -16.67, -22.02, -18.82, -23.49, -14.01, -23.92, -25.37, -24.83, -21.14, -18.19, 0.000, 0.000, 0.000, 01:44:00.349
107, -20.63, -26.40, -18.48, -22.06, -24.83, -14.86, -16.72, -22.02, -18.82, -23.49, -14.01, -23.92, -25.37, -24.83, -21.14, -18.19, 0.000, 0.000, 0.000, 01:44:00.352
108, -20.63, -26.40, -18.48, -22.06, -24.83, -14.86, -16.72, -22.02, -18.93, -23.63, -13.86, -24.27, -25.48, -25.06, -21.32, -18.17, 0.000, 0.000, 0.000, 01:44:00.356
109, -20.90, -26.64, -18.48, -22.13, -24.81, -14.86, -16.52, -22.11, -18.93, -23.63, -13.86, -24.27, -25.48, -25.06, -21.32, -18.17, 0.000, 0.000, 0.000, 01:44:00.362
110, -20.90, -26.64, -18.48, -22.13, -24.81, -14.86, -16.52, -22.11, -18.95, -23.47, -14.08, -23.89, -25.48, -25.06, -21.10, -18.04, 0.000, 0.000, 0.000, 01:44:00.364
111, -20.76, -26.46, -18.57, -22.06, -24.86, -15.09, -16.76, -22.06, -18.95, -23.47, -14.08, -23.89, -25.48, -25.06, -21.10, -18.04, 0.000, 0.000, 0.000, 01:44:00.369
112, -20.76, -26.46, -18.57, -22.06, -24.86, -15.09, -16.76, -22.06, -18.98, -23.40, -13.79, -23.92, -25.37, -24.83, -21.14, -18.17, 0.000, 0.000, 0.000, 01:44:00.374
113, -20.79, -26.78, -18.40, -22.15, -25.01, -14.86, -16.56, -22.35, -18.98, -23.40, -13.79, -23.92, -25.37, -24.83, -21.14, -18.17, 0.000, 0.000, 0.000, 01:44:00.376
114, -20.79, -26.78, -18.40, -22.15, -25.01, -14.86, -16.56, -22.35, -18.95, -23.47, -13.79, -23.98, -25.35, -24.63, -21.10, -18.26, 0.000, 0.000, 0.000, 01:44:00.382
115, -20.79, -26.53, -18.42, -21.93, -24.92, -14.89, -16.63, -22.26, -18.95, -23.47, -13.79, -23.98, -25.35, -24.63, -21.10, -18.26, 0.028, 0.942, 0.290, 01:44:00.386
116, -20.79, -26.53, -18.42, -21.93, -24.92, -14.89, -16.63, -22.26, -18.82, -23.42, -14.04, -23.98, -25.50, -24.88, -21.12, -18.10, 0.000, 0.000, 0.000, 01:44:00.388
117, -20.70, -26.53, -18.57, -22.02, -24.86, -14.91, -16.65, -22.24, -18.82, -23.42, -14.04, -23.98, -25.50, -24.88, -21.12, -18.10, 0.000, 0.000, 0.000, 01:44:00.395
118, -20.70, -26.53, -18.57, -22.02, -24.86, -14.91, -16.65, -22.24, -18.82, -23.54, -13.90, -24.12, -25.50, -25.01, -21.23, -17.99, 0.000, 0.000, 0.000, 01:44:00.399
119, -20.68, -26.78, -18.46, -22.11, -25.01, -15.18, -16.79, -22.17, -18.82, -23.54, -13.90, -24.12, -25.50, -25.01, -21.23, -17.99, 0.000, 0.000, 0.000, 01:44:00.403
120, -20.68, -26.78, -18.46, -22.11, -25.01, -15.18, -16.79, -22.17, -18.89, -23.42, -13.77, -24.05, -25.48, -24.77, -21.35, -17.86, 0.000, 0.000, 0.000, 01:44:00.407
121, -20.81, -26.62, -18.46, -21.97, -24.94, -14.86, -16.83, -22.15, -18.89, -23.42, -13.77, -24.05, -25.48, -24.77, -21.35, -17.86, 0.000, 0.000, 0.000, 01:44:00.410
122, -20.81, -26.62, -18.46, -21.97, -24.94, -14.86, -16.83, -22.15, -19.04, -23.25, -13.84, -24.05, -25.15, -24.94, -21.26, -18.26, 0.000, 0.000, 0.000, 01:44:00.413
123, -20.74, -26.60, -18.48, -22.08, -25.15, -14.93, -16.67, -22.08, -19.04, -23.25, -13.84, -24.05, -25.15, -24.94, -21.26, -18.26, 0.000, 0.000, 0.000, 01:44:00.417
124, -20.74, -26.60, -18.48, -22.08, -25.15, -14.93, -16.67, -22.08, -18.73, -23.74, -13.75, -23.92, -25.46, -24.74, -21.35, -17.97, 0.000, 0.000, 0.000, 01:44:00.420
125, -20.61, -26.55, -18.40, -22.15, -24.99, -14.71, -16.76, -22.02, -18.73, -23.74, -13.75, -23.92, -25.46, -24.74, -21.35, -17.97, 0.030, 0.940, 0.286, 01:44:00.423
126, -20.61, -26.55, -18.40, -22.15, -24.99, -14.71, -16.76, -22.02, -18.93, -23.63, -13.97, -24.03, -25.24, -24.70, -21.46, -18.13, 0.000, 0.000, 0.000, 01:44:00.428
127, -20.43, -26.76, -18.60, -22.11, -25.08, -14.89, -16.70, -21.90, -18.93, -23.63, -13.97, -24.03, -25.24, -24.70, -21.46, -18.13, 0.000, 0.000, 0.000, 01:44:00.433
128, -20.43, -26.76, -18.60, -22.11, -25.08, -14.89, -16.70, -21.90, -18.89, -23.58, -13.90, -24.12, -25.15, -24.56, -21.19, -18.13, 0.000, 0.000, 0.000, 01:44:00.437
129, -20.72, -26.58, -18.60, -21.95, -25.06, -14.95, -16.76, -22.13, -18.89, -23.58, -13.90, -24.12, -25.15, -24.56, -21.19, -18.13, 0.000, 0.000, 0.000, 01:44:00.439
130, -20.72, -26.58, -18.60, -21.95, -25.06, -14.95, -16.76, -22.13, -19.11, -23.45, -13.88, -23.98, -25.30, -24.81, -21.28, -18.04, 0.000, 0.000, 0.000, 01:44:00.444
131, -20.68, -26.69, -18.42, -22.13, -24.92, -15.04, -16.61, -21.88, -19.11, -23.45, -13.88, -23.98, -25.30, -24.81, -21.28, -18.04, 0.000, 0.000, 0.000, 01:44:00.449
132, -20.68, -26.69, -18.42, -22.13, -24.92, -15.04, -16.61, -21.88, -18.64, -23.40, -13.99, -23.98, -25.26, -24.68, -21.08, -18.31, 0.000, 0.000, 0.000, 01:44:00.454
133, -20.76, -26.76, -18.35, -22.22, -25.08, -15.09, -16.88, -22.06, -18.64, -23.40, -13.99, -23.98, -25.26, -24.68, -21.08, -18.31, 0.000, 0.000, 0.000, 01:44:00.457
134, -20.76, -26.76, -18.35, -22.22, -25.08, -15.09, -16.88, -22.06, -18.73, -23.36, -13.95, -23.92, -25.24, -24.77, -21.23, -18.15, 0.036, 0.942, 0.292, 01:44:00.460
135, -20.76, -26.51, -18.64, -22.06, -25.01, -14.84, -16.90, -22.22, -18.73, -23.36, -13.95, -23.92, -25.24, -24.77, -21.23, -18.15, 0.000, 0.000, 0.000, 01:44:00.465
136, -20.76, -26.51, -18.64, -22.06, -25.01, -14.84, -16.90, -22.22, -19.04, -23.65, -13.86, -23.92, -25.50, -24.79, -21.35, -18.08, 0.000, 0.000, 0.000, 01:44:00.467
137, -20.76, -26.55, -18.80, -22.17, -25.01, -14.84, -16.76, -22.08, -19.04, -23.65, -13.86, -23.92, -25.50, -24.79, -21.35, -18.08, 0.000, 0.000, 0.000, 01:44:00.472
138, -20.76, -26.55, -18.80, -22.17, -25.01, -14.84, -16.76, -22.08, -18.98, -23.60, -13.93, -23.94, -25.62, -24.79, -21.37, -17.97, 0.000, 0.000, 0.000, 01:44:00.479
139, -20.97, -26.60, -18.62, -22.15, -25.08, -14.75, -16.92, -22.02, -18.98, -23.60, -13.93, -23.94, -25.62, -24.79, -21.37, -17.97, 0.000, 0.000, 0.000, 01:44:00.483
140, -20.97, -26.60, -18.62, -22.15, -25.08, -14.75, -16.92, -22.02, -18.93, -23.54, -14.08, -24.05, -25.53, -24.86, -21.10, -18.13, 0.000, 0.000, 0.000, 01:44:00.486
141, -21.14, -26.64, -18.55, -21.99, -25.15, -14.91, -16.88, -21.95, -18.93, -23.54, -14.08, -24.05, -25.53, -24.86, -21.10, -18.13, 0.000, 0.000, 0.000, 01:44:00.491
142, -21.14, -26.64, -18.55, -21.99, -25.15, -14.91, -16.88, -21.95, -19.20, -23.29, -13.81, -23.98, -25.35, -24.88, -21.35, -18.26, 0.000, 0.000, 0.000, 01:44:00.493
143, -20.90, -26.51, -18.64, -22.28, -24.97, -15.00, -16.94, -22.17, -19.20, -23.29, -13.81, -23.98, -25.35, -24.88, -21.35, -18.26, 0.000, 0.000, 0.000, 01:44:00.498
144, -20.90, -26.51, -18.64, -22.28, -24.97, -15.00, -16.94, -22.17, -18.93, -23.49, -13.90, -23.96, -25.41, -24.83, -21.06, -17.99, 0.034, 0.950, 0.288, 01:44:00.504
145, -20.99, -26.42, -18.53, -22.15, -25.03, -15.07, -16.65, -22.04, -18.93, -23.49, -13.90, -23.96, -25.41, -24.83, -21.06, -17.99, 0.000, 0.000, 0.000, 01:44:00.508
146, -20.99, -26.42, -18.53, -22.15, -25.03, -15.07, -16.65, -22.04, -18.78, -23.49, -14.01, -24.10, -25.32, -24.86, -21.21, -18.15, 0.000, 0.000, 0.000, 01:44:00.513
147, -20.88, -26.44, -18.53, -22.15, -25.10, -14.93, -16.63, -22.08, -18.78, -23.49, -14.01, -24.10, -25.32, -24.86, -21.21, -18.15, 0.000, 0.000, 0.000, 01:44:00.516
148, -20.88, -26.44, -18.53, -22.15, -25.10, -14.93, -16.63, -22.08, -19.04, -23.45, -13.81, -24.45, -25.41, -24.72, -21.39, -18.37, 0.000, 0.000, 0.000, 01:44:00.518
149, -20.65, -26.71, -18.33, -22.02, -25.17, -14.91, -16.70, -21.86, -19.04, -23.45, -13.81, -24.45, -25.41, -24.72, -21.39, -18.37, 0.000, 0.000, 0.000, 01:44:00.522
150, -20.65, -26.71, -18.33, -22.02, -25.17, -14.91, -16.70, -21.86, -18.80, -23.47, -13.95, -24.14, -25.57, -25.06, -21.23, -18.24, 0.000, 0.000, 0.000, 01:44:00.526
151, -20.68, -26.51, -18.57, -21.86, -25.24, -15.04, -16.76, -22.06, -18.80, -23.47, -13.95, -24.14, -25.57, -25.06, -21.23, -18.24, 0.000, 0.000, 0.000, 01:44:00.529
152, -20.68, -26.51, -18.57, -21.86, -25.24, -15.04, -16.76, -22.06, -18.89, -23.40, -13.81, -24.14, -25.48, -25.01, -21.50, -18.17, 0.000, 0.000, 0.000, 01:44:00.533
153, -20.74, -26.49, -18.69, -22.11, -25.12, -14.95, -16.92, -22.02, -18.89, -23.40, -13.81, -24.14, -25.48, -25.01, -21.50, -18.17, 0.000, 0.000, 0.000, 01:44:00.537
154, -20.74, -26.49, -18.69, -22.11, -25.12, -14.95, -16.92, -22.02, -19.00, -23.42, -13.95, -24.03, -25.35, -24.88, -21.10, -18.15, 0.028, 0.946, 0.302, 01:44:00.541
155, -20.65, -26.53, -18.42, -21.99, -25.12, -14.95, -16.85, -22.06, -19.00, -23.42, -13.95, -24.03, -25.35, -24.88, -21.10, -18.15, 0.000, 0.000, 0.000, 01:44:00.546
156, -20.65, -26.53, -18.42, -21.99, -25.12, -14.95, -16.85, -22.06, -18.95, -23.45, -14.13, -23.92, -25.32, -24.92, -21.12, -18.15, 0.000, 0.000, 0.000, 01:44:00.549
157, -20.74, -26.53, -18.53, -21.97, -24.94, -14.89, -16.92, -22.17, -18.95, -23.45, -14.13, -23.92, -25.32, -24.92, -21.12, -18.15, 0.000, 0.000, 0.000, 01:44:00.555
158, -20.74, -26.53, -18.53, -21.97, -24.94, -14.89, -16.92, -22.17, -19.02, -23.49, -13.93, -24.03, -25.32, -24.86, -21.14, -18.10, 0.000, 0.000, 0.000, 01:44:00.559
159, -20.56, -26.69, -18.28, -21.95, -25.21, -14.89, -16.85, -22.26, -19.02, -23.49, -13.93, -24.03, -25.32, -24.86, -21.14, -18.10, 0.000, 0.000, 0.000, 01:44:00.561
160, -20.56, -26.69, -18.28, -21.95, -25.21, -14.89, -16.85, -22.26, -18.98, -23.18, -13.81, -23.94, -25.24, -24.83, -21.30, -18.17, 0.000, 0.000, 0.000, 01:44:00.565
161, -20.56, -26.51, -18.31, -21.88, -24.97, -15.02, -16.81, -21.95, -18.98, -23.18, -13.81, -23.94, -25.24, -24.83, -21.30, -18.17, 0.000, 0.000, 0.000, 01:44:00.569
162, -20.56, -26.51, -18.31, -21.88, -24.97, -15.02, -16.81, -21.95, -18.93, -23.29, -14.13, -24.18, -25.35, -24.79, -21.19, -18.10, 0.000, 0.000, 0.000, 01:44:00.572
163, -20.74, -26.44, -18.57, -22.24, -25.03, -15.11, -16.90, -22.17, -18.93, -23.29, -14.13, -24.18, -25.35, -24.79, -21.19, -18.10, 0.000, 0.000, 0.000, 01:44:00.575
164, -20.74, -26.44, -18.57, -22.24, -25.03, -15.11, -16.90, -22.17, -19.00, -23.34, -14.17, -23.96, -25.21, -24.77, -21.19, -17.97, 0.020, 0.942, 0.302, 01:44:00.580
165, -20.81, -26.67, -18.42, -22.24, -24.99, -14.93, -16.85, -22.13, -19.00, -23.34, -14.17, -23.96, -25.21, -24.77, -21.19, -17.97, 0.000, 0.000, 0.000, 01:44:00.584
166, -20.81, -26.67, -18.42, -22.24, -24.99, -14.93, -16.85, -22.13, -18.95, -23.27, -13.84, -23.89, -25.26, -24.77, -21.35, -17.77, 0.000, 0.000, 0.000, 01:44:00.588
167, -20.54, -26.67, -18.48, -22.02, -25.03, -15.07, -16.79, -22.28, -18.95, -23.27, -13.84, -23.89, -25.26, -24.77, -21.35, -17.77, 0.000, 0.000, 0.000, 01:44:00.592
168, -20.54, -26.67, -18.48, -22.02, -25.03, -15.07, -16.79, -22.28, -18.71, -23.38, -13.90, -24.10, -25.50, -24.90, -21.28, -17.90, 0.000, 0.000, 0.000, 01:44:00.596
169, -20.72, -26.55, -18.57, -22.04, -25.12, -14.95, -16.65, -22.17, -18.71, -23.38, -13.90, -24.10, -25.50, -24.90, -21.28, -17.90, 0.000, 0.000, 0.000, 01:44:00.601
170, -20.72, -26.55, -18.57, -22.04, -25.12, -14.95, -16.65, -22.17, -18.75, -23.31, -13.79, -24.05, -25.50, -24.90, -21.32, -17.93, 0.000, 0.000, 0.000, 01:44:00.604
171, -20.83, -26.64, -18.57, -22.22, -25.10, -14.82, -16.83, -22.22, -18.75, -23.31, -13.79, -24.05, -25.50, -24.90, -21.32, -17.93, 0.000, 0.000, 0.000, 01:44:00.609
172, -20.83, -26.64, -18.57, -22.22, -25.10, -14.82, -16.83, -22.22, -18.80, -23.45, -13.95, -24.05, -25.48, -24.99, -21.32, -17.97, 0.000, 0.000, 0.000, 01:44:00.613
173, -20.92, -26.46, -18.42, -22.13, -25.03, -15.07, -16.72, -22.06, -18.80, -23.45, -13.95, -24.05, -25.48, -24.99, -21.32, -17.97, 0.000, 0.000, 0.000, 01:44:00.616
174, -20.92, -26.46, -18.42, -22.13, -25.03, -15.07, -16.72, -22.06, -18.69, -23.51, -13.86, -24.10, -25.28, -24.83, -21.21, -18.02, 0.018, 0.942, 0.308, 01:44:00.623
175, -20.88, -26.80, -18.69, -22.15, -25.21, -14.95, -16.90, -21.97, -18.69, -23.51, -13.86, -24.10, -25.28, -24.83, -21.21, -18.02, 0.000, 0.000, 0.000, 01:44:00.624
176, -20.88, -26.80, -18.69, -22.15, -25.21, -14.95, -16.90, -21.97, -18.89, -23.65, -13.95, -23.85, -25.24, -24.68, -21.17, -17.93, 0.000, 0.000, 0.000, 01:44:00.629
177, -20.72, -26.55, -18.53, -21.88, -25.10, -15.07, -16.79, -22.08, -18.89, -23.65, -13.95, -23.85, -25.24, -24.68, -21.17, -17.93, 0.000, 0.000, 0.000, 01:44:00.632
178, -20.72, -26.55, -18.53, -21.88, -25.10, -15.07, -16.79, -22.08, -18.95, -23.51, -13.95, -23.89, -25.50, -24.65, -20.99, -17.95, 0.000, 0.000, 0.000, 01:44:00.653
177, -20.72, -26.55, -18.53, -21.88, -25.10, -15.07, -16.79, -22.08, -18.95, -23.51, -13.95, -23.89, -25.50, -24.65, -20.99, -17.95, 0.000, 0.000, 0.000, 01:44:00.654
179, -20.50, -26.49, -18.48, -22.13, -25.06, -15.00, -16.72, -22.15, -18.95, -23.51, -13.95, -23.89, -25.50, -24.65, -20.99, -17.95, 0.000, 0.000, 0.000, 01:44:00.654
180, -20.50, -26.49, -18.48, -22.13, -25.06, -15.00, -16.72, -22.15, -18.86, -23.45, -13.99, -23.92, -25.39, -24.88, -21.12, -18.17, 0.000, 0.000, 0.000, 01:44:00.654
181, -20.74, -26.67, -18.37, -22.13, -25.10, -15.18, -16.63, -21.88, -18.86, -23.45, -13.99, -23.92, -25.39, -24.88, -21.12, -18.17, 0.000, 0.000, 0.000, 01:44:00.654
182, -20.74, -26.67, -18.37, -22.13, -25.10, -15.18, -16.63, -21.88, -19.00, -23.29, -13.99, -24.03, -25.15, -24.70, -21.32, -17.84, 0.000, 0.000, 0.000, 01:44:00.656
180, -20.74, -26.67, -18.37, -22.13, -25.10, -15.18, -16.63, -21.88, -18.86, -23.45, -13.99, -23.92, -25.39, -24.88, -21.12, -18.17, 0.000, 0.000, 0.000, 01:44:00.661
183, -20.70, -26.71, -18.71, -22.13, -25.17, -15.04, -16.76, -22.06, -18.86, -23.45, -13.99, -23.92, -25.39, -24.88, -21.12, -18.17, 0.000, 0.000, 0.000, 01:44:00.662
184, -20.70, -26.71, -18.71, -22.13, -25.17, -15.04, -16.76, -22.06, -18.98, -23.38, -13.81, -23.78, -25.46, -24.77, -21.14, -17.95, 0.022, 0.948, 0.306, 01:44:00.666
185, -20.90, -26.53, -18.57, -22.06, -25.17, -14.80, -16.76, -22.15, -18.98, -23.38, -13.81, -23.78, -25.46, -24.77, -21.14, -17.95, 0.000, 0.000, 0.000, 01:44:00.669
186, -20.90, -26.53, -18.57, -22.06, -25.17, -14.80, -16.76, -22.15, -18.78, -23.31, -14.06, -24.05, -25.57, -25.03, -21.30, -17.99, 0.000, 0.000, 0.000, 01:44:00.672
187, -20.79, -26.46, -18.60, -22.24, -24.83, -15.02, -16.70, -22.06, -18.78, -23.31, -14.06, -24.05, -25.57, -25.03, -21.30, -17.99, 0.000, 0.000, 0.000, 01:44:00.676
188, -20.79, -26.46, -18.60, -22.24, -24.83, -15.02, -16.70, -22.06, -18.75, -23.31, -14.08, -23.85, -25.39, -24.79, -21.17, -18.19, 0.000, 0.000, 0.000, 01:44:00.679
189, -20.54, -26.69, -18.53, -21.99, -24.97, -14.91, -16.58, -22.11, -18.75, -23.31, -14.08, -23.85, -25.39, -24.79, -21.17, -18.19, 0.000, 0.000, 0.000, 01:44:00.682
190, -20.54, -26.69, -18.53, -21.99, -24.97, -14.91, -16.58, -22.11, -18.98, -23.47, -13.97, -23.89, -25.50, -24.81, -21.14, -18.22, 0.000, 0.000, 0.000, 01:44:00.685
191, -20.59, -26.78, -18.71, -22.11, -24.88, -15.09, -16.63, -22.20, -18.98, -23.47, -13.97, -23.89, -25.50, -24.81, -21.14, -18.22, 0.000, 0.000, 0.000, 01:44:00.689
192, -20.59, -26.78, -18.71, -22.11, -24.88, -15.09, -16.63, -22.20, -18.95, -23.42, -13.70, -24.16, -25.59, -24.77, -21.21, -18.08, 0.000, 0.000, 0.000, 01:44:00.692
193, -20.81, -26.46, -18.69, -22.20, -25.12, -15.04, -16.63, -22.17, -18.95, -23.42, -13.70, -24.16, -25.59, -24.77, -21.21, -18.08, 0.024, 0.946, 0.298, 01:44:00.697
194, -20.81, -26.46, -18.69, -22.20, -25.12, -15.04, -16.63, -22.17, -19.02, -23.36, -13.79, -24.14, -25.44, -24.99, -21.35, -18.08, 0.000, 0.000, 0.000, 01:44:00.701
195, -20.85, -26.80, -18.57, -22.04, -25.06, -14.98, -16.70, -21.95, -19.02, -23.36, -13.79, -24.14, -25.44, -24.99, -21.35, -18.08, 0.000, 0.000, 0.000, 01:44:00.705
196, -20.85, -26.80, -18.57, -22.04, -25.06, -14.98, -16.70, -21.95, -18.91, -23.65, -13.90, -23.96, -25.37, -24.81, -21.30, -18.28, 0.000, 0.000, 0.000, 01:44:00.709
197, -20.81, -26.62, -18.28, -21.99, -25.15, -15.02, -17.01, -21.97, -18.91, -23.65, -13.90, -23.96, -25.37, -24.81, -21.30, -18.28, 0.000, 0.000, 0.000, 01:44:00.712
198, -20.81, -26.62, -18.28, -21.99, -25.15, -15.02, -17.01, -21.97, -19.00, -23.38, -13.79, -24.23, -25.41, -25.01, -21.14, -18.19, 0.000, 0.000, 0.000, 01:44:00.717
199, -20.85, -26.82, -18.48, -22.11, -25.08, -15.11, -16.70, -22.11, -19.00, -23.38, -13.79, -24.23, -25.41, -25.01, -21.14, -18.19, 0.000, 0.000, 0.000, 01:44:00.722
200, -20.85, -26.82, -18.48, -22.11, -25.08, -15.11, -16.70, -22.11, -18.95, -23.29, -13.81, -24.25, -25.30, -24.79, -21.37, -18.19, 0.000, 0.000, 0.000, 01:44:00.726
201, -20.79, -26.60, -18.57, -22.02, -25.01, -14.93, -16.70, -21.93, -18.95, -23.29, -13.81, -24.25, -25.30, -24.79, -21.37, -18.19, 0.000, 0.000, 0.000, 01:44:00.729
202, -20.79, -26.60, -18.57, -22.02, -25.01, -14.93, -16.70, -21.93, -18.91, -23.49, -13.90, -24.05, -25.35, -24.81, -21.26, -18.19, 0.000, 0.000, 0.000, 01:44:00.733
203, -20.72, -26.69, -18.37, -21.99, -25.03, -14.95, -16.92, -22.20, -18.91, -23.49, -13.90, -24.05, -25.35, -24.81, -21.26, -18.19, 0.022, 0.948, 0.296, 01:44:00.736
204, -20.72, -26.69, -18.37, -21.99, -25.03, -14.95, -16.92, -22.20, -19.07, -23.69, -14.10, -23.87, -25.44, -24.86, -21.19, -18.19, 0.000, 0.000, 0.000, 01:44:00.742
205, -20.72, -26.93, -18.37, -22.13, -25.08, -14.84, -16.76, -22.11, -19.07, -23.69, -14.10, -23.87, -25.44, -24.86, -21.19, -18.19, 0.000, 0.000, 0.000, 01:44:00.743
206, -20.72, -26.93, -18.37, -22.13, -25.08, -14.84, -16.76, -22.11, -18.89, -23.54, -13.99, -24.14, -25.55, -24.70, -21.21, -18.19, 0.000, 0.000, 0.000, 01:44:00.747
207, -20.74, -26.73, -18.46, -22.17, -25.03, -15.02, -16.79, -22.13, -18.89, -23.54, -13.99, -24.14, -25.55, -24.70, -21.21, -18.19, 0.000, 0.000, 0.000, 01:44:00.753
208, -20.74, -26.73, -18.46, -22.17, -25.03, -15.02, -16.79, -22.13, -19.04, -23.54, -14.08, -24.07, -25.44, -24.70, -21.32, -18.22, 0.000, 0.000, 0.000, 01:44:00.757
209, -20.76, -26.80, -18.46, -22.24, -25.10, -14.77, -16.76, -21.86, -19.04, -23.54, -14.08, -24.07, -25.44, -24.70, -21.32, -18.22, 0.000, 0.000, 0.000, 01:44:00.760
210, -20.76, -26.80, -18.46, -22.24, -25.10, -14.77, -16.76, -21.86, -18.95, -23.40, -13.95, -24.01, -25.46, -24.90, -20.97, -17.99, 0.000, 0.000, 0.000, 01:44:00.764
211, -20.52, -26.80, -18.44, -21.95, -25.08, -15.00, -16.92, -22.15, -18.95, -23.40, -13.95, -24.01, -25.46, -24.90, -20.97, -17.99, 0.000, 0.000, 0.000, 01:44:00.767
212, -20.52, -26.80, -18.44, -21.95, -25.08, -15.00, -16.92, -22.15, -19.00, -23.36, -13.77, -24.03, -25.35, -24.97, -21.21, -18.13, 0.000, 0.000, 0.000, 01:44:00.773
213, -20.90, -26.80, -18.51, -22.13, -25.21, -14.95, -16.72, -22.26, -19.00, -23.36, -13.77, -24.03, -25.35, -24.97, -21.21, -18.13, 0.018, 0.942, 0.298, 01:44:00.776
214, -20.90, -26.80, -18.51, -22.13, -25.21, -14.95, -16.72, -22.26, -18.93, -23.27, -13.84, -23.98, -25.30, -24.90, -21.32, -17.86, 0.000, 0.000, 0.000, 01:44:00.781
215, -20.76, -26.38, -18.48, -22.24, -25.15, -15.09, -16.85, -22.20, -18.93, -23.27, -13.84, -23.98, -25.30, -24.90, -21.32, -17.86, 0.000, 0.000, 0.000, 01:44:00.784
216, -20.76, -26.38, -18.48, -22.24, -25.15, -15.09, -16.85, -22.20, -18.84, -23.60, -13.86, -24.03, -25.35, -25.01, -21.39, -18.10, 0.000, 0.000, 0.000, 01:44:00.789
217, -20.88, -26.51, -18.33, -22.04, -25.06, -14.91, -16.92, -22.11, -18.84, -23.60, -13.86, -24.03, -25.35, -25.01, -21.39, -18.10, 0.000, 0.000, 0.000, 01:44:00.794
218, -20.88, -26.51, -18.33, -22.04, -25.06, -14.91, -16.92, -22.11, -18.84, -23.27, -14.01, -24.03, -25.44, -25.01, -21.46, -18.10, 0.000, 0.000, 0.000, 01:44:00.799
219, -20.72, -26.49, -18.51, -22.04, -25.12, -14.84, -16.83, -22.11, -18.84, -23.27, -14.01, -24.03, -25.44, -25.01, -21.46, -18.10, 0.000, 0.000, 0.000, 01:44:00.801
220, -20.72, -26.49, -18.51, -22.04, -25.12, -14.84, -16.83, -22.11, -18.98, -23.42, -14.08, -24.10, -25.24, -24.88, -21.14, -18.08, 0.000, 0.000, 0.000, 01:44:00.804
221, -20.74, -26.76, -18.46, -22.08, -24.94, -14.89, -16.56, -22.28, -18.98, -23.42, -14.08, -24.10, -25.24, -24.88, -21.14, -18.08, 0.000, 0.000, 0.000, 01:44:00.811
222, -20.74, -26.76, -18.46, -22.08, -24.94, -14.89, -16.56, -22.28, -19.00, -23.36, -13.86, -24.14, -25.44, -24.79, -21.26, -18.10, 0.000, 0.000, 0.000, 01:44:00.815
223, -20.74, -26.55, -18.53, -22.11, -25.08, -14.69, -16.63, -22.06, -19.00, -23.36, -13.86, -24.14, -25.44, -24.79, -21.26, -18.10, 0.018, 0.940, 0.302, 01:44:00.818
224, -20.74, -26.55, -18.53, -22.11, -25.08, -14.69, -16.63, -22.06, -19.09, -23.36, -13.84, -23.85, -25.30, -25.03, -21.41, -17.88, 0.000, 0.000, 0.000, 01:44:00.822
225, -20.65, -26.55, -18.75, -22.15, -24.97, -15.02, -16.63, -21.99, -19.09, -23.36, -13.84, -23.85, -25.30, -25.03, -21.41, -17.88, 0.000, 0.000, 0.000, 01:44:00.824
226, -20.65, -26.55, -18.75, -22.15, -24.97, -15.02, -16.63, -21.99, -18.86, -23.56, -13.97, -23.96, -25.62, -24.94, -21.37, -18.15, 0.000, 0.000, 0.000, 01:44:00.828
227, -20.54, -26.84, -18.60, -22.15, -25.01, -14.95, -16.72, -21.97, -18.86, -23.56, -13.97, -23.96, -25.62, -24.94, -21.37, -18.15, 0.000, 0.000, 0.000, 01:44:00.831
228, -20.54, -26.84, -18.60, -22.15, -25.01, -14.95, -16.72, -21.97, -18.62, -23.56, -13.99, -23.92, -25.35, -24.72, -21.30, -18.13, 0.000, 0.000, 0.000, 01:44:00.835
229, -20.65, -26.73, -18.46, -22.11, -24.97, -14.69, -16.50, -22.31, -18.62, -23.56, -13.99, -23.92, -25.35, -24.72, -21.30, -18.13, 0.000, 0.000, 0.000, 01:44:00.840
230, -20.65, -26.73, -18.46, -22.11, -24.97, -14.69, -16.50, -22.31, -19.02, -23.60, -14.06, -23.98, -25.32, -24.86, -21.32, -18.10, 0.000, 0.000, 0.000, 01:44:00.845
231, -20.74, -26.71, -18.66, -21.88, -25.19, -14.89, -16.72, -22.15, -19.02, -23.60, -14.06, -23.98, -25.32, -24.86, -21.32, -18.10, 0.000, 0.000, 0.000, 01:44:00.848
232, -20.74, -26.71, -18.66, -21.88, -25.19, -14.89, -16.72, -22.15, -18.98, -23.49, -14.13, -23.96, -25.35, -24.88, -21.19, -18.10, 0.000, 0.000, 0.000, 01:44:00.852
233, -20.83, -26.53, -18.51, -22.08, -25.15, -14.86, -16.74, -21.90, -18.98, -23.49, -14.13, -23.96, -25.35, -24.88, -21.19, -18.10, 0.016, 0.938, 0.306, 01:44:00.857
234, -20.83, -26.53, -18.51, -22.08, -25.15, -14.86, -16.74, -21.90, -18.84, -23.51, -14.01, -23.89, -25.28, -24.74, -21.32, -18.22, 0.000, 0.000, 0.000, 01:44:00.862
235, -20.74, -26.73, -18.40, -22.11, -24.97, -14.91, -16.92, -22.17, -18.84, -23.51, -14.01, -23.89, -25.28, -24.74, -21.32, -18.22, 0.000, 0.000, 0.000, 01:44:00.865
236, -20.74, -26.73, -18.40, -22.11, -24.97, -14.91, -16.92, -22.17, -18.91, -23.31, -13.90, -23.96, -25.35, -24.63, -21.23, -18.22, 0.000, 0.000, 0.000, 01:44:00.870
237, -20.94, -26.60, -18.57, -22.22, -25.03, -14.75, -16.54, -22.08, -18.91, -23.31, -13.90, -23.96, -25.35, -24.63, -21.23, -18.22, 0.000, 0.000, 0.000, 01:44:00.874
238, -20.94, -26.60, -18.57, -22.22, -25.03, -14.75, -16.54, -22.08, -18.82, -23.42, -14.28, -24.03, -25.19, -24.72, -21.28, -18.17, 0.000, 0.000, 0.000, 01:44:00.878
239, -20.79, -26.49, -18.89, -22.17, -24.92, -14.71, -16.54, -22.20, -18.82, -23.42, -14.28, -24.03, -25.19, -24.72, -21.28, -18.17, 0.000, 0.000, 0.000, 01:44:00.882
240, -20.79, -26.49, -18.89, -22.17, -24.92, -14.71, -16.54, -22.20, -18.91, -23.27, -14.01, -24.03, -25.48, -24.86, -21.39, -18.13, 0.000, 0.000, 0.000, 01:44:00.884
241, -20.63, -26.53, -18.60, -22.02, -25.01, -14.93, -16.67, -22.15, -18.91, -23.27, -14.01, -24.03, -25.48, -24.86, -21.39, -18.13, 0.000, 0.000, 0.000, 01:44:00.888
242, -20.63, -26.53, -18.60, -22.02, -25.01, -14.93, -16.67, -22.15, -18.82, -23.56, -13.95, -24.05, -25.46, -24.90, -21.19, -18.06, 0.000, 0.000, 0.000, 01:44:00.891
241, -20.63, -26.53, -18.60, -22.02, -25.01, -14.93, -16.67, -22.15, -18.82, -23.56, -13.95, -24.05, -25.46, -24.90, -21.19, -18.06, 0.000, 0.000, 0.000, 01:44:00.895
243, -20.63, -26.62, -18.71, -22.15, -25.01, -14.80, -16.63, -22.20, -18.82, -23.56, -13.95, -24.05, -25.46, -24.90, -21.19, -18.06, 0.026, 0.936, 0.312, 01:44:00.898
244, -20.63, -26.62, -18.71, -22.15, -25.01, -14.80, -16.63, -22.20, -18.80, -23.47, -14.08, -24.03, -25.39, -24.97, -21.03, -17.93, 0.000, 0.000, 0.000, 01:44:00.903
245, -20.70, -26.62, -18.64, -22.13, -25.26, -14.95, -16.50, -22.11, -18.80, -23.47, -14.08, -24.03, -25.39, -24.97, -21.03, -17.93, 0.000, 0.000, 0.000, 01:44:00.906
246, -20.70, -26.62, -18.64, -22.13, -25.26, -14.95, -16.50, -22.11, -19.00, -23.36, -13.88, -24.07, -25.41, -24.70, -21.23, -17.88, 0.000, 0.000, 0.000, 01:44:00.908
247, -20.81, -26.69, -18.40, -22.40, -25.06, -14.93, -16.58, -22.04, -19.00, -23.36, -13.88, -24.07, -25.41, -24.70, -21.23, -17.88, 0.000, 0.000, 0.000, 01:44:00.911
248, -20.81, -26.69, -18.40, -22.40, -25.06, -14.93, -16.58, -22.04, -19.02, -23.56, -13.81, -23.96, -25.48, -24.81, -21.19, -18.06, 0.000, 0.000, 0.000, 01:44:00.915
249, -20.63, -26.71, -18.75, -22.06, -25.01, -15.09, -16.74, -22.13, -19.02, -23.56, -13.81, -23.96, -25.48, -24.81, -21.19, -18.06, 0.000, 0.000, 0.000, 01:44:00.920
250, -20.63, -26.71, -18.75, -22.06, -25.01, -15.09, -16.74, -22.13, -18.86, -23.47, -13.99, -24.01, -25.48, -24.79, -21.28, -18.31, 0.000, 0.000, 0.000, 01:44:00.923
251, -20.70, -26.67, -18.66, -21.90, -24.99, -14.98, -16.79, -22.13, -18.86, -23.47, -13.99, -24.01, -25.48, -24.79, -21.28, -18.31, 0.000, 0.000, 0.000, 01:44:00.928
252, -20.70, -26.67, -18.66, -21.90, -24.99, -14.98, -16.79, -22.13, -18.73, -23.27, -14.13, -23.80, -25.39, -25.10, -21.30, -18.10, 0.020, 0.940, 0.304, 01:44:00.932
253, -20.79, -26.67, -18.66, -21.99, -24.83, -14.73, -16.70, -22.26, -18.73, -23.27, -14.13, -23.80, -25.39, -25.10, -21.30, -18.10, 0.000, 0.000, 0.000, 01:44:00.937
254, -20.79, -26.67, -18.66, -21.99, -24.83, -14.73, -16.70, -22.26, -18.98, -23.22, -14.04, -23.96, -25.37, -24.94, -21.35, -18.04, 0.000, 0.000, 0.000, 01:44:00.940
255, -20.76, -26.67, -18.60, -22.02, -25.10, -14.93, -16.81, -22.22, -18.98, -23.22, -14.04, -23.96, -25.37, -24.94, -21.35, -18.04, 0.000, 0.000, 0.000, 01:44:00.944
0, -20.76, -26.67, -18.60, -22.02, -25.10, -14.93, -16.81, -22.22, -18.69, -23.51, -14.19, -23.96, -25.32, -24.72, -21.37, -18.06, 0.000, 0.000, 0.000, 01:44:00.948
1, -20.72, -26.67, -18.51, -21.93, -25.06, -14.86, -17.01, -22.26, -18.69, -23.51, -14.19, -23.96, -25.32, -24.72, -21.37, -18.06, 0.000, 0.000, 0.000, 01:44:00.953
2, -20.72, -26.67, -18.51, -21.93, -25.06, -14.86, -17.01, -22.26, -18.91, -23.34, -14.01, -24.10, -25.39, -24.74, -21.28, -18.06, 0.000, 0.000, 0.000, 01:44:00.957
3, -20.76, -26.69, -18.78, -22.17, -25.03, -14.75, -16.79, -21.95, -18.91, -23.34, -14.01, -24.10, -25.39, -24.74, -21.28, -18.06, 0.000, 0.000, 0.000, 01:44:00.962
4, -20.76, -26.69, -18.78, -22.17, -25.03, -14.75, -16.79, -21.95, -18.78, -23.47, -13.97, -23.96, -25.24, -24.99, -21.37, -18.06, 0.000, 0.000, 0.000, 01:44:00.982
5, -20.70, -26.33, -18.75, -22.22, -25.03, -14.86, -16.72, -22.13, -18.78, -23.47, -13.97, -23.96, -25.24, -24.99, -21.37, -18.06, 0.000, 0.000, 0.000, 01:44:00.987
6, -20.70, -26.33, -18.75, -22.22, -25.03, -14.86, -16.72, -22.13, -19.07, -23.45, -14.13, -23.80, -25.41, -25.01, -21.39, -18.10, 0.016, 0.942, 0.300, 01:44:00.992
10, -20.70, -26.33, -18.75, -22.22, -25.03, -14.86, -16.72, -22.13, -18.84, -23.42, -14.01, -24.03, -25.48, -24.83, -21.46, -18.04, 0.000, 0.000, 0.000, 01:44:00.995
11, -20.81, -26.55, -18.51, -22.06, -25.15, -15.02, -16.67, -22.17, -18.84, -23.42, -14.01, -24.03, -25.48, -24.83, -21.46, -18.04, 0.000, 0.000, 0.000, 01:44:01.000
12, -20.81, -26.55, -18.51, -22.06, -25.15, -15.02, -16.67, -22.17, -18.98, -23.72, -13.70, -24.10, -25.41, -24.94, -21.28, -18.06, 0.000, 0.000, 0.000, 01:44:01.003
13, -20.94, -26.62, -18.51, -22.02, -25.12, -14.86, -16.67, -22.17, -18.98, -23.72, -13.70, -24.10, -25.41, -24.94, -21.28, -18.06, 0.000, 0.000, 0.000, 01:44:01.007
14, -20.94, -26.62, -18.51, -22.02, -25.12, -14.86, -16.67, -22.17, -18.75, -23.58, -13.84, -23.85, -25.46, -24.86, -21.14, -17.99, 0.000, 0.000, 0.000, 01:44:01.013
15, -20.85, -26.69, -18.51, -22.22, -25.12, -14.75, -16.81, -22.13, -18.75, -23.58, -13.84, -23.85, -25.46, -24.86, -21.14, -17.99, 0.000, 0.000, 0.000, 01:44:01.016
13, -20.94, -26.62, -18.51, -22.02, -25.12, -14.86, -16.67, -22.17, -18.75, -23.58, -13.84, -23.85, -25.46, -24.86, -21.14, -17.99, 0.000, 0.000, 0.000, 01:44:01.020
17, -20.59, -26.71, -18.57, -22.22, -25.01, -14.95, -16.81, -22.20, -18.75, -23.58, -13.84, -23.85, -25.46, -24.86, -21.14, -17.99, 0.000, 0.000, 0.000, 01:44:01.025
18, -20.59, -26.71, -18.57, -22.22, -25.01, -14.95, -16.81, -22.20, -18.84, -23.38, -14.01, -24.03, -25.53, -24.83, -21.39, -18.02, 0.000, 0.000, 0.000, 01:44:01.028
19, -20.68, -26.91, -18.57, -22.28, -24.86, -14.95, -16.76, -22.24, -18.84, -23.38, -14.01, -24.03, -25.53, -24.83, -21.39, -18.02, 0.000, 0.000, 0.000, 01:44:01.034
20, -20.68, -26.91, -18.57, -22.28, -24.86, -14.95, -16.76, -22.24, -18.80, -23.40, -14.01, -23.94, -25.32, -25.01, -21.37, -18.10, 0.000, 0.000, 0.000, 01:44:01.037
21, -20.83, -26.64, -18.46, -22.15, -24.97, -14.80, -16.90, -22.22, -18.80, -23.40, -14.01, -23.94, -25.32, -25.01, -21.37, -18.10, 0.000, 0.000, 0.000, 01:44:01.041
22, -20.83, -26.64, -18.46, -22.15, -24.97, -14.80, -16.90, -22.22, -18.84, -23.49, -13.90, -24.07, -25.48, -25.01, -21.35, -17.95, 0.000, 0.000, 0.000, 01:44:01.044
24, -20.83, -26.64, -18.46, -22.15, -24.97, -14.80, -16.90, -22.22, -18.84, -23.45, -13.97, -24.01, -25.37, -24.79, -21.03, -18.08, 0.000, 0.000, 0.000, 01:44:01.048
25, -20.88, -26.40, -18.64, -21.95, -25.15, -14.95, -16.54, -22.17, -18.84, -23.45, -13.97, -24.01, -25.37, -24.79, -21.03, -18.08, 0.000, 0.000, 0.000, 01:44:01.052
26, -20.88, -26.40, -18.64, -21.95, -25.15, -14.95, -16.54, -22.17, -18.93, -23.49, -13.75, -24.07, -25.35, -25.06, -21.19, -18.13, 0.030, 0.932, 0.310, 01:44:01.054
27, -20.88, -26.58, -18.53, -22.17, -25.01, -14.91, -16.85, -21.99, -18.93, -23.49, -13.75, -24.07, -25.35, -25.06, -21.19, -18.13, 0.000, 0.000, 0.000, 01:44:01.059
28, -20.88, -26.58, -18.53, -22.17, -25.01, -14.91, -16.85, -21.99, -18.80, -23.36, -13.90, -23.89, -25.39, -24.92, -21.01, -18.19, 0.000, 0.000, 0.000, 01:44:01.062
29, -20.85, -26.64, -18.42, -22.24, -25.10, -14.91, -16.74, -22.06, -18.80, -23.36, -13.90, -23.89, -25.39, -24.92, -21.01, -18.19, 0.000, 0.000, 0.000, 01:44:01.067
30, -20.85, -26.64, -18.42, -22.24, -25.10, -14.91, -16.74, -22.06, -18.80, -23.51, -13.93, -24.03, -25.46, -24.90, -21.21, -18.15, 0.000, 0.000, 0.000, 01:44:01.070
31, -20.88, -26.46, -18.73, -22.20, -25.10, -14.98, -16.76, -22.11, -18.80, -23.51, -13.93, -24.03, -25.46, -24.90, -21.21, -18.15, 0.000, 0.000, 0.000, 01:44:01.075
32, -20.88, -26.46, -18.73, -22.20, -25.10, -14.98, -16.76, -22.11, -19.09, -23.45, -14.01, -24.01, -25.41, -24.92, -21.32, -18.08, 0.000, 0.000, 0.000, 01:44:01.079
33, -20.88, -26.38, -18.53, -22.13, -25.26, -15.15, -16.83, -22.15, -19.09, -23.45, -14.01, -24.01, -25.41, -24.92, -21.32, -18.08, 0.000, 0.000, 0.000, 01:44:01.084
34, -20.88, -26.38, -18.53, -22.13, -25.26, -15.15, -16.83, -22.15, -19.24, -23.38, -13.79, -24.01, -25.39, -24.79, -21.35, -18.04, 0.000, 0.000, 0.000, 01:44:01.087
35, -20.79, -26.67, -18.60, -22.08, -25.26, -15.15, -16.94, -22.08, -19.24, -23.38, -13.79, -24.01, -25.39, -24.79, -21.35, -18.04, 0.000, 0.000, 0.000, 01:44:01.091
36, -20.79, -26.67, -18.60, -22.08, -25.26, -15.15, -16.94, -22.08, -18.95, -23.49, -14.04, -23.96, -25.35, -24.79, -21.10, -18.02, 0.028, 0.942, 0.320, 01:44:01.096
37, -20.92, -26.31, -18.46, -22.11, -24.99, -14.80, -16.81, -22.37, -18.95, -23.49, -14.04, -23.96, -25.35, -24.79, -21.10, -18.02, 0.000, 0.000, 0.000, 01:44:01.100
38, -20.92, -26.31, -18.46, -22.11, -24.99, -14.80, -16.81, -22.37, -18.86, -23.42, -13.90, -24.07, -25.28, -24.77, -21.06, -18.08, 0.000, 0.000, 0.000, 01:44:01.104
39, -20.83, -26.55, -18.40, -22.17, -25.03, -14.91, -16.72, -22.02, -18.86, -23.42, -13.90, -24.07, -25.28, -24.77, -21.06, -18.08, 0.000, 0.000, 0.000, 01:44:01.107
40, -20.83, -26.55, -18.40, -22.17, -25.03, -14.91, -16.72, -22.02, -18.86, -23.40, -13.95, -24.14, -25.35, -24.77, -21.14, -17.97, 0.000, 0.000, 0.000, 01:44:01.111
41, -20.83, -26.49, -18.53, -22.15, -24.90, -14.93, -16.74, -21.97, -18.86, -23.40, -13.95, -24.14, -25.35, -24.77, -21.14, -17.97, 0.000, 0.000, 0.000, 01:44:01.113
42, -20.83, -26.49, -18.53, -22.15, -24.90, -14.93, -16.74, -21.97, -18.98, -23.49, -14.04, -24.01, -25.37, -24.90, -21.06, -18.04, 0.000, 0.000, 0.000, 01:44:01.117
43, -20.94, -26.69, -18.42, -22.11, -24.94, -14.93, -16.70, -22.15, -18.98, -23.49, -14.04, -24.01, -25.37, -24.90, -21.06, -18.04, 0.000, 0.000, 0.000, 01:44:01.121
44, -20.94, -26.69, -18.42, -22.11, -24.94, -14.93, -16.70, -22.15, -18.84, -23.42, -13.93, -24.12, -25.39, -24.94, -21.01, -18.13, 0.000, 0.000, 0.000, 01:44:01.126
45, -20.81, -26.62, -18.46, -21.99, -25.06, -15.02, -16.70, -22.02, -18.84, -23.42, -13.93, -24.12, -25.39, -24.94, -21.01, -18.13, 0.000, 0.000, 0.000, 01:44:01.130
46, -20.81, -26.62, -18.46, -21.99, -25.06, -15.02, -16.70, -22.02, -18.91, -23.18, -13.86, -23.89, -25.50, -24.94, -21.21, -18.13, 0.028, 0.942, 0.314, 01:44:01.132
47, -20.85, -26.64, -18.35, -21.95, -25.12, -15.00, -16.81, -21.99, -18.91, -23.18, -13.86, -23.89, -25.50, -24.94, -21.21, -18.13, 0.000, 0.000, 0.000, 01:44:01.137
48, -20.85, -26.64, -18.35, -21.95, -25.12, -15.00, -16.81, -21.99, -19.09, -23.47, -13.77, -24.07, -25.30, -24.94, -21.39, -18.06, 0.000, 0.000, 0.000, 01:44:01.139
49, -20.81, -26.58, -18.66, -22.13, -25.15, -14.77, -16.85, -22.15, -19.09, -23.47, -13.77, -24.07, -25.30, -24.94, -21.39, -18.06, 0.000, 0.000, 0.000, 01:44:01.144
50, -20.81, -26.58, -18.66, -22.13, -25.15, -14.77, -16.85, -22.15, -19.11, -23.38, -13.97, -24.14, -25.41, -24.83, -21.14, -17.97, 0.000, 0.000, 0.000, 01:44:01.146
51, -20.76, -26.55, -18.53, -22.15, -25.03, -15.02, -17.01, -22.02, -19.11, -23.38, -13.97, -24.14, -25.41, -24.83, -21.14, -17.97, 0.000, 0.000, 0.000, 01:44:01.151
52, -20.76, -26.55, -18.53, -22.15, -25.03, -15.02, -17.01, -22.02, -19.11, -23.40, -14.13, -23.83, -25.50, -24.83, -21.30, -18.22, 0.000, 0.000, 0.000, 01:44:01.154
53, -20.79, -26.73, -18.48, -22.04, -24.94, -14.93, -16.74, -22.20, -19.11, -23.40, -14.13, -23.83, -25.50, -24.83, -21.30, -18.22, 0.000, 0.000, 0.000, 01:44:01.159
54, -20.79, -26.73, -18.48, -22.04, -24.94, -14.93, -16.74, -22.20, -18.89, -23.65, -14.15, -23.98, -25.24, -24.81, -21.41, -18.19, 0.000, 0.000, 0.000, 01:44:01.162
55, -20.70, -26.55, -18.51, -22.06, -25.12, -14.95, -16.56, -22.15, -18.89, -23.65, -14.15, -23.98, -25.24, -24.81, -21.41, -18.19, 0.018, 0.932, 0.316, 01:44:01.168
56, -20.70, -26.55, -18.51, -22.06, -25.12, -14.95, -16.56, -22.15, -18.73, -23.67, -13.95, -23.94, -25.39, -24.94, -21.21, -18.22, 0.000, 0.000, 0.000, 01:44:01.172
57, -20.70, -26.46, -18.57, -22.15, -25.21, -15.18, -16.70, -22.20, -18.73, -23.67, -13.95, -23.94, -25.39, -24.94, -21.21, -18.22, 0.000, 0.000, 0.000, 01:44:01.175
58, -20.70, -26.46, -18.57, -22.15, -25.21, -15.18, -16.70, -22.20, -18.82, -23.60, -14.04, -24.14, -25.35, -24.70, -21.21, -18.10, 0.000, 0.000, 0.000, 01:44:01.180
59, -20.76, -26.58, -18.40, -21.99, -25.08, -15.07, -16.85, -21.99, -18.82, -23.60, -14.04, -24.14, -25.35, -24.70, -21.21, -18.10, 0.000, 0.000, 0.000, 01:44:01.183
60, -20.76, -26.58, -18.40, -21.99, -25.08, -15.07, -16.85, -21.99, -18.89, -23.40, -13.79, -23.85, -25.59, -24.77, -21.14, -18.08, 0.000, 0.000, 0.000, 01:44:01.189
61, -20.70, -26.58, -18.48, -22.04, -25.12, -14.86, -16.76, -22.02, -18.89, -23.40, -13.79, -23.85, -25.59, -24.77, -21.14, -18.08, 0.000, 0.000, 0.000, 01:44:01.193
62, -20.70, -26.58, -18.48, -22.04, -25.12, -14.86, -16.76, -22.02, -18.89, -23.51, -13.86, -24.12, -25.10, -24.65, -21.12, -18.35, 0.000, 0.000, 0.000, 01:44:01.196
63, -20.81, -26.49, -18.57, -22.26, -25.06, -15.02, -16.90, -22.02, -18.89, -23.51, -13.86, -24.12, -25.10, -24.65, -21.12, -18.35, 0.000, 0.000, 0.000, 01:44:01.201
64, -20.81, -26.49, -18.57, -22.26, -25.06, -15.02, -16.90, -22.02, -19.07, -23.56, -13.93, -24.10, -25.30, -24.74, -21.37, -18.19, 0.000, 0.000, 0.000, 01:44:01.204
65, -20.90, -26.71, -18.48, -22.13, -25.17, -14.77, -16.67, -22.11, -19.07, -23.56, -13.93, -24.10, -25.30, -24.74, -21.37, -18.19, 0.016, 0.936, 0.314, 01:44:01.210
66, -20.90, -26.71, -18.48, -22.13, -25.17, -14.77, -16.67, -22.11, -18.86, -23.47, -13.72, -24.16, -25.44, -24.72, -21.50, -18.08, 0.000, 0.000, 0.000, 01:44:01.213
67, -20.81, -26.53, -18.37, -22.11, -25.06, -14.86, -16.61, -22.22, -18.86, -23.47, -13.72, -24.16, -25.44, -24.72, -21.50, -18.08, 0.000, 0.000, 0.000, 01:44:01.218
68, -20.81, -26.53, -18.37, -22.11, -25.06, -14.86, -16.61, -22.22, -18.93, -23.25, -13.77, -23.87, -25.32, -24.83, -21.30, -18.13, 0.000, 0.000, 0.000, 01:44:01.222
69, -20.68, -26.60, -18.60, -22.11, -25.21, -14.80, -16.65, -22.04, -18.93, -23.25, -13.77, -23.87, -25.32, -24.83, -21.30, -18.13, 0.000, 0.000, 0.000, 01:44:01.226
70, -20.68, -26.60, -18.60, -22.11, -25.21, -14.80, -16.65, -22.04, -19.11, -23.54, -13.84, -23.85, -25.32, -24.63, -21.35, -18.13, 0.000, 0.000, 0.000, 01:44:01.231
71, -20.68, -26.69, -18.51, -22.13, -25.03, -14.95, -16.58, -22.08, -19.11, -23.54, -13.84, -23.85, -25.32, -24.63, -21.35, -18.13, 0.000, 0.000, 0.000, 01:44:01.234
72, -20.68, -26.69, -18.51, -22.13, -25.03, -14.95, -16.58, -22.08, -19.02, -23.36, -13.75, -24.07, -25.55, -24.68, -21.14, -18.02, 0.000, 0.000, 0.000, 01:44:01.239
73, -20.74, -26.51, -18.51, -22.15, -25.03, -14.80, -16.63, -22.08, -19.02, -23.36, -13.75, -24.07, -25.55, -24.68, -21.14, -18.02, 0.000, 0.000, 0.000, 01:44:01.242
74, -20.74, -26.51, -18.51, -22.15, -25.03, -14.80, -16.63, -22.08, -19.04, -23.49, -13.95, -24.18, -25.26, -24.61, -21.19, -18.24, 0.000, 0.000, 0.000, 01:44:01.247
75, -20.63, -26.51, -18.66, -22.08, -24.81, -14.82, -16.74, -21.99, -19.04, -23.49, -13.95, -24.18, -25.26, -24.61, -21.19, -18.24, 0.020, 0.936, 0.310, 01:44:01.252
76, -20.63, -26.51, -18.66, -22.08, -24.81, -14.82, -16.74, -21.99, -18.89, -23.60, -13.93, -24.03, -25.21, -24.81, -21.19, -17.90, 0.000, 0.000, 0.000, 01:44:01.255
77, -20.88, -26.64, -18.46, -22.04, -24.97, -14.93, -17.03, -21.97, -18.89, -23.60, -13.93, -24.03, -25.21, -24.81, -21.19, -17.90, 0.000, 0.000, 0.000, 01:44:01.260
78, -20.88, -26.64, -18.46, -22.04, -24.97, -14.93, -17.03, -21.97, -18.98, -23.47, -14.13, -24.10, -25.39, -24.90, -21.37, -17.88, 0.000, 0.000, 0.000, 01:44:01.263
79, -20.88, -26.51, -18.51, -21.88, -25.15, -14.93, -16.74, -21.97, -18.98, -23.47, -14.13, -24.10, -25.39, -24.90, -21.37, -17.88, 0.000, 0.000, 0.000, 01:44:01.268
80, -20.88, -26.51, -18.51, -21.88, -25.15, -14.93, -16.74, -21.97, -18.78, -23.63, -13.86, -24.14, -25.35, -24.92, -21.21, -18.13, 0.000, 0.000, 0.000, 01:44:01.273
81, -20.63, -26.71, -18.62, -22.13, -25.06, -14.71, -16.58, -22.02, -18.78, -23.63, -13.86, -24.14, -25.35, -24.92, -21.21, -18.13, 0.000, 0.000, 0.000, 01:44:01.277
82, -20.63, -26.71, -18.62, -22.13, -25.06, -14.71, -16.58, -22.02, -19.11, -23.63, -14.06, -23.92, -25.39, -24.79, -21.23, -18.19, 0.000, 0.000, 0.000, 01:44:01.281
83, -20.76, -26.73, -18.62, -22.08, -25.17, -14.84, -16.81, -22.11, -19.11, -23.63, -14.06, -23.92, -25.39, -24.79, -21.23, -18.19, 0.000, 0.000, 0.000, 01:44:01.285
84, -20.76, -26.73, -18.62, -22.08, -25.17, -14.84, -16.81, -22.11, -18.95, -23.51, -13.88, -24.01, -25.70, -25.12, -21.28, -18.02, 0.000, 0.000, 0.000, 01:44:01.289
85, -20.83, -26.53, -18.62, -21.95, -25.26, -14.93, -16.74, -22.02, -18.95, -23.51, -13.88, -24.01, -25.70, -25.12, -21.28, -18.02, 0.030, 0.930, 0.306, 01:44:01.294
86, -20.83, -26.53, -18.62, -21.95, -25.26, -14.93, -16.74, -22.02, -18.78, -23.31, -13.95, -24.01, -25.55, -24.92, -21.12, -17.79, 0.000, 0.000, 0.000, 01:44:01.297
87, -20.85, -26.67, -18.57, -21.90, -25.10, -15.02, -16.79, -22.04, -18.78, -23.31, -13.95, -24.01, -25.55, -24.92, -21.12, -17.79, 0.000, 0.000, 0.000, 01:44:01.302
88, -20.85, -26.67, -18.57, -21.90, -25.10, -15.02, -16.79, -22.04, -18.78, -23.56, -13.88, -23.80, -25.41, -24.99, -21.19, -17.99, 0.000, 0.000, 0.000, 01:44:01.305
89, -20.83, -26.53, -18.55, -22.11, -25.06, -14.84, -16.61, -22.46, -18.78, -23.56, -13.88, -23.80, -25.41, -24.99, -21.19, -17.99, 0.000, 0.000, 0.000, 01:44:01.310
90, -20.83, -26.53, -18.55, -22.11, -25.06, -14.84, -16.61, -22.46, -18.78, -23.42, -13.97, -24.05, -25.32, -24.77, -21.19, -18.26, 0.000, 0.000, 0.000, 01:44:01.314
91, -20.83, -26.69, -18.31, -21.99, -25.12, -14.91, -16.65, -22.08, -18.78, -23.42, -13.97, -24.05, -25.32, -24.77, -21.19, -18.26, 0.000, 0.000, 0.000, 01:44:01.319
92, -20.83, -26.69, -18.31, -21.99, -25.12, -14.91, -16.65, -22.08, -18.86, -23.45, -14.10, -24.07, -25.35, -24.86, -21.23, -18.08, 0.000, 0.000, 0.000, 01:44:01.323
93, -20.83, -26.62, -18.48, -21.97, -24.81, -15.09, -16.54, -22.13, -18.86, -23.45, -14.10, -24.07, -25.35, -24.86, -21.23, -18.08, 0.000, 0.000, 0.000, 01:44:01.327
94, -20.83, -26.62, -18.48, -21.97, -24.81, -15.09, -16.54, -22.13, -18.86, -23.40, -13.59, -24.01, -25.46, -24.90, -21.23, -18.13, 0.000, 0.000, 0.000, 01:44:01.330
95, -20.90, -26.80, -18.64, -22.28, -24.94, -15.11, -16.67, -22.24, -18.86, -23.40, -13.59, -24.01, -25.46, -24.90, -21.23, -18.13, 0.032, 0.940, 0.302, 01:44:01.335
96, -20.90, -26.80, -18.64, -22.28, -24.94, -15.11, -16.67, -22.24, -19.11, -23.69, -13.93, -23.89, -25.30, -24.83, -21.12, -18.13, 0.000, 0.000, 0.000, 01:44:01.340
97, -20.74, -26.73, -18.42, -22.06, -25.10, -15.09, -16.70, -22.22, -19.11, -23.69, -13.93, -23.89, -25.30, -24.83, -21.12, -18.13, 0.000, 0.000, 0.000, 01:44:01.342
98, -20.74, -26.73, -18.42, -22.06, -25.10, -15.09, -16.70, -22.22, -19.04, -23.63, -13.81, -24.23, -25.46, -24.90, -21.23, -17.97, 0.000, 0.000, 0.000, 01:44:01.346
99, -20.74, -26.55, -18.28, -22.08, -25.01, -15.00, -16.88, -22.33, -19.04, -23.63, -13.81, -24.23, -25.46, -24.90, -21.23, -17.97, 0.000, 0.000, 0.000, 01:44:01.348
100, -20.74, -26.55, -18.28, -22.08, -25.01, -15.00, -16.88, -22.33, -18.93, -23.54, -13.90, -24.25, -25.46, -24.79, -21.26, -18.02, 0.000, 0.000, 0.000, 01:44:01.353
101, -20.70, -26.49, -18.33, -22.08, -25.15, -15.04, -16.72, -22.17, -18.93, -23.54, -13.90, -24.25, -25.46, -24.79, -21.26, -18.02, 0.000, 0.000, 0.000, 01:44:01.356
102, -20.70, -26.49, -18.33, -22.08, -25.15, -15.04, -16.72, -22.17, -18.95, -23.49, -13.93, -23.98, -25.41, -24.92, -21.19, -18.26, 0.000, 0.000, 0.000, 01:44:01.359
103, -20.79, -26.71, -18.53, -22.17, -25.03, -14.95, -16.58, -22.20, -18.95, -23.49, -13.93, -23.98, -25.41, -24.92, -21.19, -18.26, 0.000, 0.000, 0.000, 01:44:01.363
104, -20.79, -26.71, -18.53, -22.17, -25.03, -14.95, -16.58, -22.20, -18.89, -23.51, -13.86, -24.14, -25.62, -24.97, -21.23, -18.10, 0.000, 0.000, 0.000, 01:44:01.366
105, -20.85, -26.69, -18.69, -22.17, -25.03, -14.77, -16.63, -22.20, -18.89, -23.51, -13.86, -24.14, -25.62, -24.97, -21.23, -18.10, 0.026, 0.948, 0.310, 01:44:01.385
106, -20.85, -26.69, -18.69, -22.17, -25.03, -14.77, -16.63, -22.20, -18.95, -23.38, -13.90, -24.14, -25.50, -24.83, -21.21, -17.99, 0.000, 0.000, 0.000, 01:44:01.390
107, -20.83, -26.67, -18.69, -22.02, -25.15, -15.00, -16.70, -22.11, -18.95, -23.38, -13.90, -24.14, -25.50, -24.83, -21.21, -17.99, 0.000, 0.000, 0.000, 01:44:01.394
111, -20.65, -26.49, -18.66, -22.28, -25.03, -14.73, -16.67, -22.17, -18.95, -23.38, -13.90, -24.14, -25.50, -24.83, -21.21, -17.99, 0.000, 0.000, 0.000, 01:44:01.398
112, -20.65, -26.49, -18.66, -22.28, -25.03, -14.73, -16.67, -22.17, -18.91, -23.29, -14.08, -23.89, -25.28, -24.94, -21.21, -18.08, 0.000, 0.000, 0.000, 01:44:01.403
113, -20.81, -26.71, -18.73, -22.13, -24.97, -14.77, -16.61, -21.84, -18.91, -23.29, -14.08, -23.89, -25.28, -24.94, -21.21, -18.08, 0.000, 0.000, 0.000, 01:44:01.407
114, -20.81, -26.71, -18.73, -22.13, -24.97, -14.77, -16.61, -21.84, -19.07, -23.40, -13.97, -24.03, -25.28, -24.92, -21.21, -18.15, 0.000, 0.000, 0.000, 01:44:01.411
115, -20.54, -26.84, -18.73, -22.15, -25.12, -14.84, -16.67, -22.26, -19.07, -23.40, -13.97, -24.03, -25.28, -24.92, -21.21, -18.15, 0.026, 0.936, 0.310, 01:44:01.414
116, -20.54, -26.84, -18.73, -22.15, -25.12, -14.84, -16.67, -22.26, -18.64, -23.27, -13.88, -24.01, -25.39, -25.03, -21.32, -18.08, 0.000, 0.000, 0.000, 01:44:01.419
117, -20.81, -26.69, -18.53, -21.90, -25.15, -15.00, -16.56, -22.11, -18.64, -23.27, -13.88, -24.01, -25.39, -25.03, -21.32, -18.08, 0.000, 0.000, 0.000, 01:44:01.424
118, -20.81, -26.69, -18.53, -21.90, -25.15, -15.00, -16.56, -22.11, -18.82, -23.49, -14.08, -24.10, -25.41, -24.92, -21.06, -17.93, 0.000, 0.000, 0.000, 01:44:01.428
119, -20.88, -26.53, -18.57, -22.17, -25.24, -15.13, -16.96, -22.04, -18.82, -23.49, -14.08, -24.10, -25.41, -24.92, -21.06, -17.93, 0.000, 0.000, 0.000, 01:44:01.432
120, -20.88, -26.53, -18.57, -22.17, -25.24, -15.13, -16.96, -22.04, -18.86, -23.56, -13.90, -24.03, -25.26, -25.06, -21.30, -18.13, 0.000, 0.000, 0.000, 01:44:01.437
121, -20.83, -26.69, -18.66, -22.24, -24.81, -14.82, -16.67, -22.08, -18.86, -23.56, -13.90, -24.03, -25.26, -25.06, -21.30, -18.13, 0.000, 0.000, 0.000, 01:44:01.440
122, -20.83, -26.69, -18.66, -22.24, -24.81, -14.82, -16.67, -22.08, -18.93, -23.63, -14.01, -23.94, -25.44, -24.90, -21.41, -18.19, 0.000, 0.000, 0.000, 01:44:01.444
124, -20.83, -26.69, -18.66, -22.24, -24.81, -14.82, -16.67, -22.08, -18.80, -23.40, -13.84, -24.05, -25.39, -24.90, -21.03, -18.04, 0.024, 0.934, 0.314, 01:44:01.458
125, -20.92, -26.87, -18.53, -22.20, -25.15, -14.95, -16.85, -22.26, -18.80, -23.40, -13.84, -24.05, -25.39, -24.90, -21.03, -18.04, 0.000, 0.000, 0.000, 01:44:01.458
126, -20.92, -26.87, -18.53, -22.20, -25.15, -14.95, -16.85, -22.26, -18.75, -23.40, -13.97, -24.16, -25.50, -24.90, -21.12, -18.04, 0.000, 0.000, 0.000, 01:44:01.458
127, -20.81, -26.62, -18.44, -22.02, -24.99, -14.84, -16.85, -21.95, -18.75, -23.40, -13.97, -24.16, -25.50, -24.90, -21.12, -18.04, 0.000, 0.000, 0.000, 01:44:01.458
128, -20.81, -26.62, -18.44, -22.02, -24.99, -14.84, -16.85, -21.95, -18.71, -23.45, -13.86, -24.01, -25.39, -24.90, -21.30, -18.15, 0.000, 0.000, 0.000, 01:44:01.461
129, -20.83, -26.60, -18.53, -22.24, -24.92, -14.73, -16.92, -22.06, -18.71, -23.45, -13.86, -24.01, -25.39, -24.90, -21.30, -18.15, 0.000, 0.000, 0.000, 01:44:01.465
130, -20.83, -26.60, -18.53, -22.24, -24.92, -14.73, -16.92, -22.06, -18.89, -23.51, -13.75, -24.07, -25.46, -24.83, -21.30, -18.15, 0.000, 0.000, 0.000, 01:44:01.470
131, -20.63, -26.67, -18.73, -22.15, -24.81, -14.86, -16.81, -22.17, -18.89, -23.51, -13.75, -24.07, -25.46, -24.83, -21.30, -18.15, 0.000, 0.000, 0.000, 01:44:01.474
132, -20.63, -26.67, -18.73, -22.15, -24.81, -14.86, -16.81, -22.17, -18.91, -23.58, -13.81, -24.07, -25.17, -24.83, -21.03, -17.93, 0.000, 0.000, 0.000, 01:44:01.478
133, -20.88, -26.49, -18.62, -22.24, -25.01, -14.82, -16.79, -22.02, -18.91, -23.58, -13.81, -24.07, -25.17, -24.83, -21.03, -17.93, 0.000, 0.000, 0.000, 01:44:01.480
134, -20.88, -26.49, -18.62, -22.24, -25.01, -14.82, -16.79, -22.02, -18.98, -23.54, -13.99, -24.03, -25.21, -24.90, -21.23, -18.17, 0.018, 0.936, 0.310, 01:44:01.484
135, -20.81, -26.60, -18.57, -22.28, -24.94, -14.95, -16.76, -22.20, -18.98, -23.54, -13.99, -24.03, -25.21, -24.90, -21.23, -18.17, 0.000, 0.000, 0.000, 01:44:01.487
136, -20.81, -26.60, -18.57, -22.28, -24.94, -14.95, -16.76, -22.20, -18.98, -23.47, -13.79, -24.14, -25.21, -24.83, -21.14, -18.15, 0.000, 0.000, 0.000, 01:44:01.492
137, -20.76, -26.73, -18.78, -22.15, -25.01, -14.98, -16.70, -22.04, -18.98, -23.47, -13.79, -24.14, -25.21, -24.83, -21.14, -18.15, 0.000, 0.000, 0.000, 01:44:01.495
138, -20.76, -26.73, -18.78, -22.15, -25.01, -14.98, -16.70, -22.04, -18.93, -23.45, -13.86, -24.10, -25.41, -24.68, -21.21, -18.15, 0.000, 0.000, 0.000, 01:44:01.500
139, -20.72, -26.71, -18.71, -22.13, -25.08, -15.02, -16.74, -21.97, -18.93, -23.45, -13.86, -24.10, -25.41, -24.68, -21.21, -18.15, 0.000, 0.000, 0.000, 01:44:01.503
140, -20.72, -26.71, -18.71, -22.13, -25.08, -15.02, -16.74, -21.97, -19.02, -23.27, -13.97, -23.83, -25.03, -24.99, -21.17, -18.26, 0.000, 0.000, 0.000, 01:44:01.507
141, -20.88, -26.76, -18.31, -22.24, -24.86, -14.84, -16.63, -22.24, -19.02, -23.27, -13.97, -23.83, -25.03, -24.99, -21.17, -18.26, 0.000, 0.000, 0.000, 01:44:01.512
142, -20.88, -26.76, -18.31, -22.24, -24.86, -14.84, -16.63, -22.24, -18.95, -23.40, -13.84, -23.72, -25.19, -25.01, -21.26, -18.13, 0.000, 0.000, 0.000, 01:44:01.515
143, -21.10, -26.67, -18.44, -22.11, -24.99, -14.95, -16.76, -22.15, -18.95, -23.40, -13.84, -23.72, -25.19, -25.01, -21.26, -18.13, 0.000, 0.000, 0.000, 01:44:01.520
144, -21.10, -26.67, -18.44, -22.11, -24.99, -14.95, -16.76, -22.15, -18.91, -23.45, -13.99, -24.25, -25.28, -24.83, -21.21, -18.10, 0.018, 0.938, 0.316, 01:44:01.524
145, -20.83, -26.55, -18.53, -21.99, -25.10, -14.95, -16.81, -22.26, -18.91, -23.45, -13.99, -24.25, -25.28, -24.83, -21.21, -18.10, 0.000, 0.000, 0.000, 01:44:01.546
146, -20.83, -26.55, -18.53, -21.99, -25.10, -14.95, -16.81, -22.26, -18.89, -23.58, -13.84, -24.18, -25.39, -24.74, -21.23, -18.10, 0.000, 0.000, 0.000, 01:44:01.549
147, -20.68, -26.55, -18.46, -22.08, -25.03, -14.93, -16.70, -22.37, -18.89, -23.58, -13.84, -24.18, -25.39, -24.74, -21.23, -18.10, 0.000, 0.000, 0.000, 01:44:01.553
151, -20.65, -26.78, -18.26, -22.13, -25.08, -15.02, -16.72, -22.28, -18.89, -23.58, -13.84, -24.18, -25.39, -24.74, -21.23, -18.10, 0.000, 0.000, 0.000, 01:44:01.579
152, -20.65, -26.78, -18.26, -22.13, -25.08, -15.02, -16.72, -22.28, -18.71, -23.45, -13.99, -23.96, -25.39, -25.19, -21.10, -18.08, 0.000, 0.000, 0.000, 01:44:01.579
153, -20.70, -26.73, -18.31, -22.11, -24.86, -14.84, -16.58, -22.28, -18.71, -23.45, -13.99, -23.96, -25.39, -25.19, -21.10, -18.08, 0.000, 0.000, 0.000, 01:44:01.579
154, -20.70, -26.73, -18.31, -22.11, -24.86, -14.84, -16.58, -22.28, -18.89, -23.56, -13.95, -23.94, -25.55, -25.15, -21.10, -18.06, 0.022, 0.942, 0.308, 01:44:01.579
155, -20.83, -26.60, -18.35, -22.02, -24.99, -14.93, -16.61, -22.22, -18.89, -23.56, -13.95, -23.94, -25.55, -25.15, -21.10, -18.06, 0.000, 0.000, 0.000, 01:44:01.579
156, -20.83, -26.60, -18.35, -22.02, -24.99, -14.93, -16.61, -22.22, -18.95, -23.38, -14.13, -24.14, -25.48, -24.79, -21.21, -18.22, 0.000, 0.000, 0.000, 01:44:01.579
157, -20.90, -26.49, -18.60, -22.13, -24.83, -14.95, -16.76, -22.06, -18.95, -23.38, -14.13, -24.14, -25.48, -24.79, -21.21, -18.22, 0.000, 0.000, 0.000, 01:44:01.583
158, -20.90, -26.49, -18.60, -22.13, -24.83, -14.95, -16.76, -22.06, -18.84, -23.47, -14.22, -24.10, -25.35, -24.94, -21.26, -18.19, 0.000, 0.000, 0.000, 01:44:01.588
159, -20.65, -26.82, -18.73, -22.17, -25.01, -14.69, -16.70, -21.90, -18.84, -23.47, -14.22, -24.10, -25.35, -24.94, -21.26, -18.19, 0.000, 0.000, 0.000, 01:44:01.591
160, -20.65, -26.82, -18.73, -22.17, -25.01, -14.69, -16.70, -21.90, -18.75, -23.67, -14.01, -23.89, -25.50, -24.88, -21.17, -17.90, 0.000, 0.000, 0.000, 01:44:01.596
161, -20.85, -26.67, -18.57, -22.20, -24.90, -14.84, -16.81, -22.04, -18.75, -23.67, -14.01, -23.89, -25.50, -24.88, -21.17, -17.90, 0.000, 0.000, 0.000, 01:44:01.599
162, -20.85, -26.67, -18.57, -22.20, -24.90, -14.84, -16.81, -22.04, -18.95, -23.49, -13.99, -23.92, -25.70, -24.92, -21.19, -17.93, 0.000, 0.000, 0.000, 01:44:01.602
163, -20.76, -26.76, -18.31, -22.13, -24.81, -15.02, -16.56, -22.06, -18.95, -23.49, -13.99, -23.92, -25.70, -24.92, -21.19, -17.93, 0.000, 0.000, 0.000, 01:44:01.605
164, -20.76, -26.76, -18.31, -22.13, -24.81, -15.02, -16.56, -22.06, -18.80, -23.45, -13.99, -23.89, -25.57, -24.86, -20.99, -17.90, 0.032, 0.936, 0.294, 01:44:01.610
165, -20.85, -26.73, -18.42, -22.06, -25.24, -14.86, -16.67, -22.13, -18.80, -23.45, -13.99, -23.89, -25.57, -24.86, -20.99, -17.90, 0.000, 0.000, 0.000, 01:44:01.612
166, -20.85, -26.73, -18.42, -22.06, -25.24, -14.86, -16.67, -22.13, -18.98, -23.42, -13.93, -24.05, -25.41, -25.03, -21.12, -18.10, 0.000, 0.000, 0.000, 01:44:01.617
167, -20.63, -26.80, -18.57, -22.13, -25.06, -14.86, -16.79, -21.99, -18.98, -23.42, -13.93, -24.05, -25.41, -25.03, -21.12, -18.10, 0.000, 0.000, 0.000, 01:44:01.621
168, -20.63, -26.80, -18.57, -22.13, -25.06, -14.86, -16.79, -21.99, -19.07, -23.42, -13.88, -24.16, -25.44, -24.79, -21.19, -18.22, 0.000, 0.000, 0.000, 01:44:01.625
169, -20.79, -26.51, -18.48, -22.22, -25.03, -15.02, -16.92, -22.24, -19.07, -23.42, -13.88, -24.16, -25.44, -24.79, -21.19, -18.22, 0.000, 0.000, 0.000, 01:44:01.630
170, -20.79, -26.51, -18.48, -22.22, -25.03, -15.02, -16.92, -22.24, -18.80, -23.51, -14.22, -24.03, -25.35, -24.81, -21.26, -18.04, 0.000, 0.000, 0.000, 01:44:01.633
171, -20.90, -26.62, -18.57, -22.20, -24.97, -15.00, -16.74, -22.28, -18.80, -23.51, -14.22, -24.03, -25.35, -24.81, -21.26, -18.04, 0.000, 0.000, 0.000, 01:44:01.638
172, -20.90, -26.62, -18.57, -22.20, -24.97, -15.00, -16.74, -22.28, -19.02, -23.51, -13.90, -24.01, -25.32, -25.01, -21.12, -18.10, 0.000, 0.000, 0.000, 01:44:01.642
173, -20.74, -26.84, -18.64, -21.99, -25.03, -14.91, -16.65, -22.26, -19.02, -23.51, -13.90, -24.01, -25.32, -25.01, -21.12, -18.10, 0.000, 0.000, 0.000, 01:44:01.646
174, -20.74, -26.84, -18.64, -21.99, -25.03, -14.91, -16.65, -22.26, -19.18, -23.38, -13.99, -24.05, -25.48, -24.90, -21.30, -18.31, 0.032, 0.936, 0.300, 01:44:01.650
175, -20.68, -26.78, -18.55, -22.06, -25.08, -15.15, -16.56, -22.24, -19.18, -23.38, -13.99, -24.05, -25.48, -24.90, -21.30, -18.31, 0.000, 0.000, 0.000, 01:44:01.654
176, -20.68, -26.78, -18.55, -22.06, -25.08, -15.15, -16.56, -22.24, -18.98, -23.38, -13.90, -23.98, -25.24, -24.83, -21.23, -18.08, 0.000, 0.000, 0.000, 01:44:01.659
177, -20.76, -26.33, -18.37, -22.02, -25.06, -14.80, -16.61, -21.99, -18.98, -23.38, -13.90, -23.98, -25.24, -24.83, -21.23, -18.08, 0.000, 0.000, 0.000, 01:44:01.663
178, -20.76, -26.33, -18.37, -22.02, -25.06, -14.80, -16.61, -21.99, -18.84, -23.45, -14.06, -24.03, -25.39, -24.83, -21.26, -17.95, 0.000, 0.000, 0.000, 01:44:01.667
179, -20.59, -26.33, -18.53, -22.04, -25.03, -14.73, -16.72, -22.17, -18.84, -23.45, -14.06, -24.03, -25.39, -24.83, -21.26, -17.95, 0.000, 0.000, 0.000, 01:44:01.671
180, -20.59, -26.33, -18.53, -22.04, -25.03, -14.73, -16.72, -22.17, -18.84, -23.38, -13.79, -24.01, -25.30, -24.88, -21.12, -18.13, 0.000, 0.000, 0.000, 01:44:01.675
181, -20.85, -26.60, -18.51, -22.24, -25.10, -14.91, -16.72, -21.99, -18.84, -23.38, -13.79, -24.01, -25.30, -24.88, -21.12, -18.13, 0.000, 0.000, 0.000, 01:44:01.679
182, -20.85, -26.60, -18.51, -22.24, -25.10, -14.91, -16.72, -21.99, -18.89, -23.42, -13.93, -23.92, -25.46, -24.90, -21.44, -18.17, 0.000, 0.000, 0.000, 01:44:01.683
183, -20.97, -26.55, -18.37, -22.06, -24.94, -14.93, -16.65, -22.06, -18.89, -23.42, -13.93, -23.92, -25.46, -24.90, -21.44, -18.17, 0.024, 0.932, 0.288, 01:44:01.687
185, -20.70, -26.46, -18.69, -21.93, -25.17, -14.95, -16.79, -22.02, -18.89, -23.42, -13.93, -23.92, -25.46, -24.90, -21.44, -18.17, 0.000, 0.000, 0.000, 01:44:01.689
186, -20.70, -26.46, -18.69, -21.93, -25.17, -14.95, -16.79, -22.02, -18.86, -23.38, -13.90, -24.01, -25.37, -24.94, -21.28, -18.17, 0.000, 0.000, 0.000, 01:44:01.692
187, -20.70, -26.73, -18.55, -22.11, -24.88, -14.98, -16.74, -22.02, -18.86, -23.38, -13.90, -24.01, -25.37, -24.94, -21.28, -18.17, 0.000, 0.000, 0.000, 01:44:01.697
188, -20.70, -26.73, -18.55, -22.11, -24.88, -14.98, -16.74, -22.02, -19.07, -23.40, -13.95, -24.16, -25.46, -24.72, -21.19, -18.17, 0.000, 0.000, 0.000, 01:44:01.700
189, -20.68, -26.46, -18.40, -22.31, -25.10, -15.00, -16.67, -22.17, -19.07, -23.40, -13.95, -24.16, -25.46, -24.72, -21.19, -18.17, 0.000, 0.000, 0.000, 01:44:01.705
190, -20.68, -26.46, -18.40, -22.31, -25.10, -15.00, -16.67, -22.17, -19.13, -23.47, -13.75, -24.23, -25.53, -25.06, -21.14, -18.15, 0.000, 0.000, 0.000, 01:44:01.710
191, -20.83, -26.62, -18.40, -22.17, -25.12, -14.75, -16.70, -21.95, -19.13, -23.47, -13.75, -24.23, -25.53, -25.06, -21.14, -18.15, 0.000, 0.000, 0.000, 01:44:01.713
192, -20.83, -26.62, -18.40, -22.17, -25.12, -14.75, -16.70, -21.95, -19.11, -23.56, -13.93, -23.85, -25.48, -24.59, -21.23, -18.13, 0.000, 0.000, 0.000, 01:44:01.718
193, -20.74, -26.69, -18.40, -21.84, -25.03, -15.04, -16.63, -22.06, -19.11, -23.56, -13.93, -23.85, -25.48, -24.59, -21.23, -18.13, 0.026, 0.950, 0.298, 01:44:01.721
194, -20.74, -26.69, -18.40, -21.84, -25.03, -15.04, -16.63, -22.06, -19.00, -23.58, -13.72, -23.83, -25.39, -24.86, -21.41, -18.02, 0.000, 0.000, 0.000, 01:44:01.726
195, -20.72, -26.67, -18.55, -22.04, -25.17, -15.11, -16.72, -22.17, -19.00, -23.58, -13.72, -23.83, -25.39, -24.86, -21.41, -18.02, 0.000, 0.000, 0.000, 01:44:01.730
196, -20.72, -26.67, -18.55, -22.04, -25.17, -15.11, -16.72, -22.17, -18.84, -23.49, -13.99, -23.92, -25.37, -24.86, -21.26, -17.95, 0.000, 0.000, 0.000, 01:44:01.734
197, -20.79, -26.44, -18.55, -22.08, -25.10, -14.98, -16.85, -22.08, -18.84, -23.49, -13.99, -23.92, -25.37, -24.86, -21.26, -17.95, 0.000, 0.000, 0.000, 01:44:01.739
198, -20.79, -26.44, -18.55, -22.08, -25.10, -14.98, -16.85, -22.08, -18.78, -23.47, -13.93, -24.05, -25.37, -24.81, -21.08, -18.15, 0.000, 0.000, 0.000, 01:44:01.741
199, -20.88, -26.53, -18.62, -22.11, -24.83, -14.98, -16.81, -22.31, -18.78, -23.47, -13.93, -24.05, -25.37, -24.81, -21.08, -18.15, 0.000, 0.000, 0.000, 01:44:01.745
200, -20.88, -26.53, -18.62, -22.11, -24.83, -14.98, -16.81, -22.31, -18.91, -23.49, -13.95, -24.01, -25.39, -24.81, -21.01, -18.28, 0.000, 0.000, 0.000, 01:44:01.748
201, -20.63, -26.69, -18.55, -22.02, -25.21, -14.86, -16.70, -22.24, -18.91, -23.49, -13.95, -24.01, -25.39, -24.81, -21.01, -18.28, 0.000, 0.000, 0.000, 01:44:01.752
202, -20.63, -26.69, -18.55, -22.02, -25.21, -14.86, -16.70, -22.24, -18.98, -23.56, -13.95, -24.01, -25.37, -24.74, -21.23, -18.19, 0.000, 0.000, 0.000, 01:44:01.755
203, -20.70, -26.53, -18.48, -21.86, -25.12, -15.00, -16.96, -22.20, -18.98, -23.56, -13.95, -24.01, -25.37, -24.74, -21.23, -18.19, 0.018, 0.942, 0.300, 01:44:01.760
204, -20.70, -26.53, -18.48, -21.86, -25.12, -15.00, -16.96, -22.20, -18.82, -23.67, -14.01, -24.01, -25.32, -24.94, -21.26, -18.04, 0.000, 0.000, 0.000, 01:44:01.763
205, -20.72, -26.73, -18.46, -22.26, -25.08, -14.91, -16.65, -22.08, -18.82, -23.67, -14.01, -24.01, -25.32, -24.94, -21.26, -18.04, 0.000, 0.000, 0.000, 01:44:01.768
206, -20.72, -26.73, -18.46, -22.26, -25.08, -14.91, -16.65, -22.08, -18.89, -23.42, -14.01, -23.94, -25.37, -24.77, -21.26, -18.02, 0.000, 0.000, 0.000, 01:44:01.773
207, -20.59, -26.80, -18.46, -22.28, -25.15, -15.02, -16.65, -21.97, -18.89, -23.42, -14.01, -23.94, -25.37, -24.77, -21.26, -18.02, 0.000, 0.000, 0.000, 01:44:01.775
208, -20.59, -26.80, -18.46, -22.28, -25.15, -15.02, -16.65, -21.97, -18.86, -23.42, -13.97, -24.32, -25.41, -24.77, -21.14, -18.19, 0.000, 0.000, 0.000, 01:44:01.778
209, -20.72, -26.73, -18.51, -22.02, -25.06, -15.02, -16.96, -22.02, -18.86, -23.42, -13.97, -24.32, -25.41, -24.77, -21.14, -18.19, 0.000, 0.000, 0.000, 01:44:01.782
210, -20.72, -26.73, -18.51, -22.02, -25.06, -15.02, -16.96, -22.02, -18.78, -23.54, -13.97, -24.03, -25.39, -24.86, -21.30, -18.19, 0.000, 0.000, 0.000, 01:44:01.785
211, -20.63, -26.67, -18.51, -22.04, -25.08, -15.09, -16.70, -22.15, -18.78, -23.54, -13.97, -24.03, -25.39, -24.86, -21.30, -18.19, 0.000, 0.000, 0.000, 01:44:01.789
212, -20.63, -26.67, -18.51, -22.04, -25.08, -15.09, -16.70, -22.15, -18.86, -23.49, -14.08, -24.10, -25.59, -24.81, -21.35, -18.10, 0.000, 0.000, 0.000, 01:44:01.793
213, -20.81, -26.46, -18.35, -22.08, -25.06, -14.98, -16.94, -22.15, -18.86, -23.49, -14.08, -24.10, -25.59, -24.81, -21.35, -18.10, 0.014, 0.936, 0.298, 01:44:01.797
214, -20.81, -26.46, -18.35, -22.08, -25.06, -14.98, -16.94, -22.15, -19.04, -23.54, -13.90, -24.05, -25.57, -24.90, -21.28, -17.95, 0.000, 0.000, 0.000, 01:44:01.802
215, -20.85, -26.49, -18.46, -22.17, -25.03, -14.84, -16.83, -22.11, -19.04, -23.54, -13.90, -24.05, -25.57, -24.90, -21.28, -17.95, 0.000, 0.000, 0.000, 01:44:01.805
216, -20.85, -26.49, -18.46, -22.17, -25.03, -14.84, -16.83, -22.11, -18.91, -23.45, -13.79, -23.85, -25.32, -24.70, -21.23, -18.17, 0.000, 0.000, 0.000, 01:44:01.810
217, -20.65, -26.67, -18.31, -22.13, -25.01, -15.15, -16.58, -22.22, -18.91, -23.45, -13.79, -23.85, -25.32, -24.70, -21.23, -18.17, 0.000, 0.000, 0.000, 01:44:01.814
218, -20.65, -26.67, -18.31, -22.13, -25.01, -15.15, -16.58, -22.22, -18.93, -23.65, -13.79, -23.94, -25.37, -24.79, -21.12, -18.19, 0.000, 0.000, 0.000, 01:44:01.818
219, -20.83, -26.78, -18.35, -21.99, -24.94, -15.00, -16.70, -22.17, -18.93, -23.65, -13.79, -23.94, -25.37, -24.79, -21.12, -18.19, 0.000, 0.000, 0.000, 01:44:01.823
220, -20.83, -26.78, -18.35, -21.99, -24.94, -15.00, -16.70, -22.17, -18.82, -23.34, -13.95, -23.98, -25.35, -24.79, -21.10, -17.84, 0.000, 0.000, 0.000, 01:44:01.826
221, -20.76, -26.71, -18.75, -22.06, -25.06, -15.07, -16.76, -22.06, -18.82, -23.34, -13.95, -23.98, -25.35, -24.79, -21.10, -17.84, 0.000, 0.000, 0.000, 01:44:01.831
222, -20.76, -26.71, -18.75, -22.06, -25.06, -15.07, -16.76, -22.06, -18.93, -23.54, -14.04, -23.89, -25.30, -24.99, -21.03, -18.13, 0.000, 0.000, 0.000, 01:44:01.834
223, -20.92, -26.49, -18.57, -22.02, -24.94, -15.02, -16.72, -22.15, -18.93, -23.54, -14.04, -23.89, -25.30, -24.99, -21.03, -18.13, 0.010, 0.934, 0.298, 01:44:01.840
224, -20.92, -26.49, -18.57, -22.02, -24.94, -15.02, -16.72, -22.15, -18.98, -23.54, -13.86, -24.01, -25.35, -25.03, -21.17, -18.02, 0.000, 0.000, 0.000, 01:44:01.843
225, -20.59, -26.62, -18.57, -22.20, -25.03, -15.04, -16.65, -22.06, -18.98, -23.54, -13.86, -24.01, -25.35, -25.03, -21.17, -18.02, 0.000, 0.000, 0.000, 01:44:01.848
226, -20.59, -26.62, -18.57, -22.20, -25.03, -15.04, -16.65, -22.06, -18.93, -23.47, -13.95, -24.01, -25.35, -24.74, -21.17, -18.08, 0.000, 0.000, 0.000, 01:44:01.852
227, -20.70, -26.76, -18.55, -22.06, -24.99, -14.95, -16.63, -21.88, -18.93, -23.47, -13.95, -24.01, -25.35, -24.74, -21.17, -18.08, 0.000, 0.000, 0.000, 01:44:01.855
228, -20.70, -26.76, -18.55, -22.06, -24.99, -14.95, -16.63, -21.88, -19.00, -23.34, -13.81, -24.05, -25.66, -24.94, -21.17, -18.15, 0.000, 0.000, 0.000, 01:44:01.859
229, -20.83, -26.67, -18.51, -22.15, -25.19, -14.93, -16.67, -22.22, -19.00, -23.34, -13.81, -24.05, -25.66, -24.94, -21.17, -18.15, 0.000, 0.000, 0.000, 01:44:01.861
230, -20.83, -26.67, -18.51, -22.15, -25.19, -14.93, -16.67, -22.22, -19.02, -23.58, -13.86, -23.87, -25.57, -24.79, -21.48, -18.06, 0.000, 0.000, 0.000, 01:44:01.865
231, -20.70, -26.60, -18.75, -22.24, -25.35, -14.75, -16.74, -22.26, -19.02, -23.58, -13.86, -23.87, -25.57, -24.79, -21.48, -18.06, 0.000, 0.000, 0.000, 01:44:01.868
232, -20.70, -26.60, -18.75, -22.24, -25.35, -14.75, -16.74, -22.26, -19.00, -23.51, -14.08, -24.05, -25.37, -24.77, -21.39, -18.08, 0.000, 0.000, 0.000, 01:44:01.873
233, -20.81, -26.55, -18.33, -22.26, -25.10, -14.73, -16.83, -21.99, -19.00, -23.51, -14.08, -24.05, -25.37, -24.77, -21.39, -18.08, 0.018, 0.940, 0.312, 01:44:01.877
234, -20.81, -26.55, -18.33, -22.26, -25.10, -14.73, -16.83, -21.99, -18.93, -23.47, -14.01, -24.23, -25.50, -24.81, -21.08, -18.04, 0.000, 0.000, 0.000, 01:44:01.881
235, -20.92, -26.78, -18.48, -22.17, -25.01, -14.66, -16.74, -22.20, -18.93, -23.47, -14.01, -24.23, -25.50, -24.81, -21.08, -18.04, 0.000, 0.000, 0.000, 01:44:01.886
236, -20.92, -26.78, -18.48, -22.17, -25.01, -14.66, -16.74, -22.20, -18.95, -23.54, -13.90, -24.03, -25.39, -24.72, -21.19, -18.10, 0.000, 0.000, 0.000, 01:44:01.890
237, -20.61, -26.71, -18.57, -22.13, -25.06, -14.82, -16.47, -22.08, -18.95, -23.54, -13.90, -24.03, -25.39, -24.72, -21.19, -18.10, 0.000, 0.000, 0.000, 01:44:01.893
238, -20.61, -26.71, -18.57, -22.13, -25.06, -14.82, -16.47, -22.08, -18.82, -23.51, -13.86, -24.23, -25.32, -24.68, -21.19, -17.99, 0.000, 0.000, 0.000, 01:44:01.898
239, -20.72, -26.80, -18.55, -21.90, -25.12, -14.75, -16.67, -22.08, -18.82, -23.51, -13.86, -24.23, -25.32, -24.68, -21.19, -17.99, 0.000, 0.000, 0.000, 01:44:01.901
240, -20.72, -26.80, -18.55, -21.90, -25.12, -14.75, -16.67, -22.08, -18.78, -23.54, -13.75, -23.98, -25.59, -24.63, -21.03, -17.95, 0.000, 0.000, 0.000, 01:44:01.907
241, -20.72, -26.60, -18.42, -21.97, -25.24, -14.89, -16.76, -22.28, -18.78, -23.54, -13.75, -23.98, -25.59, -24.63, -21.03, -17.95, 0.000, 0.000, 0.000, 01:44:01.911
242, -20.72, -26.60, -18.42, -21.97, -25.24, -14.89, -16.76, -22.28, -19.04, -23.56, -13.88, -24.25, -25.39, -24.90, -21.01, -18.31, 0.022, 0.934, 0.300, 01:44:01.914
243, -20.74, -26.58, -18.66, -22.08, -24.97, -14.98, -16.83, -22.26, -19.04, -23.56, -13.88, -24.25, -25.39, -24.90, -21.01, -18.31, 0.000, 0.000, 0.000, 01:44:01.919
244, -20.74, -26.58, -18.66, -22.08, -24.97, -14.98, -16.83, -22.26, -19.00, -23.31, -14.01, -24.03, -25.44, -24.83, -21.37, -18.24, 0.000, 0.000, 0.000, 01:44:01.922
245, -20.85, -26.73, -18.66, -22.13, -25.19, -15.04, -16.88, -22.06, -19.00, -23.31, -14.01, -24.03, -25.44, -24.83, -21.37, -18.24, 0.000, 0.000, 0.000, 01:44:01.928
246, -20.85, -26.73, -18.66, -22.13, -25.19, -15.04, -16.88, -22.06, -19.04, -23.54, -13.70, -24.12, -25.68, -24.68, -21.14, -18.13, 0.000, 0.000, 0.000, 01:44:01.932
247, -20.90, -26.46, -18.55, -22.31, -24.86, -15.00, -16.58, -22.13, -19.04, -23.54, -13.70, -24.12, -25.68, -24.68, -21.14, -18.13, 0.000, 0.000, 0.000, 01:44:01.936
248, -20.90, -26.46, -18.55, -22.31, -24.86, -15.00, -16.58, -22.13, -18.91, -23.56, -13.84, -24.05, -25.32, -24.97, -21.19, -18.13, 0.000, 0.000, 0.000, 01:44:01.940
249, -20.85, -26.53, -18.60, -22.11, -24.99, -14.95, -16.72, -21.97, -18.91, -23.56, -13.84, -24.05, -25.32, -24.97, -21.19, -18.13, 0.000, 0.000, 0.000, 01:44:01.944
250, -20.85, -26.53, -18.60, -22.11, -24.99, -14.95, -16.72, -21.97, -18.93, -23.63, -13.90, -23.98, -25.41, -24.97, -21.23, -17.99, 0.000, 0.000, 0.000, 01:44:01.948
251, -20.92, -26.78, -18.46, -22.24, -24.97, -15.13, -16.70, -22.04, -18.93, -23.63, -13.90, -23.98, -25.41, -24.97, -21.23, -17.99, 0.000, 0.000, 0.000, 01:44:01.952
252, -20.92, -26.78, -18.46, -22.24, -24.97, -15.13, -16.70, -22.04, -18.69, -23.36, -13.95, -24.14, -25.35, -24.81, -21.03, -18.08, 0.018, 0.944, 0.308, 01:44:01.956
253, -20.54, -26.55, -18.48, -22.15, -25.15, -15.11, -16.70, -22.06, -18.69, -23.36, -13.95, -24.14, -25.35, -24.81, -21.03, -18.08, 0.000, 0.000, 0.000, 01:44:01.959
254, -20.54, -26.55, -18.48, -22.15, -25.15, -15.11, -16.70, -22.06, -18.78, -23.67, -13.97, -24.05, -25.32, -24.90, -21.23, -18.17, 0.000, 0.000, 0.000, 01:44:01.963
255, -20.83, -26.60, -18.44, -22.13, -25.17, -14.91, -16.67, -22.17, -18.78, -23.67, -13.97, -24.05, -25.32, -24.90, -21.23, -18.17, 0.000, 0.000, 0.000, 01:44:01.965
0, -20.83, -26.60, -18.44, -22.13, -25.17, -14.91, -16.67, -22.17, -18.91, -23.63, -14.06, -23.83, -25.26, -24.77, -21.23, -18.13, 0.000, 0.000, 0.000, 01:44:01.970
1, -20.61, -26.58, -18.48, -22.06, -24.94, -14.77, -16.74, -22.06, -18.91, -23.63, -14.06, -23.83, -25.26, -24.77, -21.23, -18.13, 0.000, 0.000, 0.000, 01:44:01.973
2, -20.61, -26.58, -18.48, -22.06, -24.94, -14.77, -16.74, -22.06, -18.84, -23.40, -14.01, -24.01, -25.21, -24.92, -21.35, -18.13, 0.000, 0.000, 0.000, 01:44:01.978
3, -20.70, -26.71, -18.64, -22.22, -24.99, -14.95, -16.79, -21.84, -18.84, -23.40, -14.01, -24.01, -25.21, -24.92, -21.35, -18.13, 0.000, 0.000, 0.000, 01:44:01.982
4, -20.70, -26.71, -18.64, -22.22, -24.99, -14.95, -16.79, -21.84, -19.00, -23.60, -14.13, -24.03, -25.41, -24.94, -21.32, -18.22, 0.000, 0.000, 0.000, 01:44:01.986
5, -20.81, -26.53, -18.55, -22.17, -24.97, -15.07, -16.61, -22.04, -19.00, -23.60, -14.13, -24.03, -25.41, -24.94, -21.32, -18.22, 0.000, 0.000, 0.000, 01:44:01.990
6, -20.81, -26.53, -18.55, -22.17, -24.97, -15.07, -16.61, -22.04, -18.80, -23.51, -13.99, -24.21, -25.50, -25.01, -21.35, -17.93, 0.018, 0.932, 0.310, 01:44:01.993
7, -20.81, -26.62, -18.48, -22.22, -25.19, -15.00, -16.83, -22.26, -18.80, -23.51, -13.99, -24.21, -25.50, -25.01, -21.35, -17.93, 0.000, 0.000, 0.000, 01:44:01.996
8, -20.81, -26.62, -18.48, -22.22, -25.19, -15.00, -16.83, -22.26, -18.84, -23.38, -14.13, -23.87, -25.44, -24.56, -21.37, -17.97, 0.000, 0.000, 0.000, 01:44:02.003
9, -20.74, -26.71, -18.42, -21.99, -25.01, -15.00, -16.81, -22.11, -18.84, -23.38, -14.13, -23.87, -25.44, -24.56, -21.37, -17.97, 0.000, 0.000, 0.000, 01:44:02.007
10, -20.74, -26.71, -18.42, -21.99, -25.01, -15.00, -16.81, -22.11, -18.89, -23.34, -14.15, -23.89, -25.17, -24.70, -21.48, -18.17, 0.000, 0.000, 0.000, 01:44:02.010
11, -20.59, -26.67, -18.51, -21.97, -25.10, -14.86, -16.72, -22.31, -18.89, -23.34, -14.15, -23.89, -25.17, -24.70, -21.48, -18.17, 0.000, 0.000, 0.000, 01:44:02.013
12, -20.59, -26.67, -18.51, -21.97, -25.10, -14.86, -16.72, -22.31, -19.07, -23.47, -13.79, -24.10, -25.30, -24.92, -21.30, -18.19, 0.000, 0.000, 0.000, 01:44:02.017
13, -20.92, -26.55, -18.40, -21.99, -24.94, -14.93, -16.88, -22.20, -19.07, -23.47, -13.79, -24.10, -25.30, -24.92, -21.30, -18.19, 0.000, 0.000, 0.000, 01:44:02.020
14, -20.92, -26.55, -18.40, -21.99, -24.94, -14.93, -16.88, -22.20, -18.82, -23.36, -13.84, -24.05, -25.28, -24.81, -21.17, -18.19, 0.000, 0.000, 0.000, 01:44:02.024
15, -20.99, -26.55, -18.53, -22.20, -25.06, -14.73, -16.85, -22.17, -18.82, -23.36, -13.84, -24.05, -25.28, -24.81, -21.17, -18.19, 0.000, 0.000, 0.000, 01:44:02.028
16, -20.99, -26.55, -18.53, -22.20, -25.06, -14.73, -16.85, -22.17, -18.86, -23.56, -13.75, -24.07, -25.44, -24.94, -21.35, -18.04, 0.026, 0.932, 0.318, 01:44:02.032
17, -20.88, -26.62, -18.37, -22.13, -24.94, -14.75, -16.74, -22.15, -18.86, -23.56, -13.75, -24.07, -25.44, -24.94, -21.35, -18.04, 0.000, 0.000, 0.000, 01:44:02.037
18, -20.88, -26.62, -18.37, -22.13, -24.94, -14.75, -16.74, -22.15, -18.98, -23.58, -13.79, -23.94, -25.57, -24.65, -21.41, -18.10, 0.000, 0.000, 0.000, 01:44:02.041
19, -20.74, -26.42, -18.48, -22.17, -24.81, -14.91, -16.83, -22.26, -18.98, -23.58, -13.79, -23.94, -25.57, -24.65, -21.41, -18.10, 0.000, 0.000, 0.000, 01:44:02.045
20, -20.74, -26.42, -18.48, -22.17, -24.81, -14.91, -16.83, -22.26, -18.82, -23.60, -13.79, -23.87, -25.37, -24.99, -21.46, -18.10, 0.000, 0.000, 0.000, 01:44:02.048
21, -20.85, -26.78, -18.80, -22.37, -24.88, -14.89, -16.83, -22.04, -18.82, -23.60, -13.79, -23.87, -25.37, -24.99, -21.46, -18.10, 0.000, 0.000, 0.000, 01:44:02.053
22, -20.85, -26.78, -18.80, -22.37, -24.88, -14.89, -16.83, -22.04, -18.89, -23.36, -13.88, -23.94, -25.50, -24.83, -21.14, -18.24, 0.000, 0.000, 0.000, 01:44:02.058
23, -20.92, -26.67, -18.60, -21.97, -25.03, -14.86, -16.79, -22.17, -18.89, -23.36, -13.88, -23.94, -25.50, -24.83, -21.14, -18.24, 0.000, 0.000, 0.000, 01:44:02.062
24, -20.92, -26.67, -18.60, -21.97, -25.03, -14.86, -16.79, -22.17, -18.93, -23.51, -13.70, -24.12, -25.35, -24.88, -21.39, -17.97, 0.000, 0.000, 0.000, 01:44:02.066
25, -20.83, -26.78, -18.37, -22.02, -25.03, -15.07, -16.70, -22.04, -18.93, -23.51, -13.70, -24.12, -25.35, -24.88, -21.39, -17.97, 0.000, 0.000, 0.000, 01:44:02.069
26, -20.83, -26.78, -18.37, -22.02, -25.03, -15.07, -16.70, -22.04, -18.84, -23.40, -14.04, -24.10, -25.50, -24.99, -21.26, -17.95, 0.024, 0.950, 0.320, 01:44:02.073
27, -20.61, -26.51, -18.48, -21.99, -24.83, -15.00, -16.72, -22.22, -18.84, -23.40, -14.04, -24.10, -25.50, -24.99, -21.26, -17.95, 0.000, 0.000, 0.000, 01:44:02.077
28, -20.61, -26.51, -18.48, -21.99, -24.83, -15.00, -16.72, -22.22, -18.93, -23.56, -13.86, -24.23, -25.35, -24.56, -21.37, -17.97, 0.000, 0.000, 0.000, 01:44:02.084
29, -20.56, -26.64, -18.35, -22.08, -24.92, -15.02, -16.72, -22.15, -18.93, -23.56, -13.86, -24.23, -25.35, -24.56, -21.37, -17.97, 0.000, 0.000, 0.000, 01:44:02.088
30, -20.56, -26.64, -18.35, -22.08, -24.92, -15.02, -16.72, -22.15, -19.04, -23.63, -13.99, -23.96, -25.30, -24.74, -21.17, -17.97, 0.000, 0.000, 0.000, 01:44:02.092
31, -20.83, -26.67, -18.37, -22.15, -24.99, -15.09, -16.79, -22.06, -19.04, -23.63, -13.99, -23.96, -25.30, -24.74, -21.17, -17.97, 0.000, 0.000, 0.000, 01:44:02.096
32, -20.83, -26.67, -18.37, -22.15, -24.99, -15.09, -16.79, -22.06, -18.78, -23.47, -13.97, -23.96, -25.44, -24.90, -21.28, -18.02, 0.000, 0.000, 0.000, 01:44:02.100
33, -20.63, -26.64, -18.64, -22.24, -25.17, -15.11, -16.88, -22.13, -18.78, -23.47, -13.97, -23.96, -25.44, -24.90, -21.28, -18.02, 0.000, 0.000, 0.000, 01:44:02.105
34, -20.63, -26.64, -18.64, -22.24, -25.17, -15.11, -16.88, -22.13, -19.00, -23.78, -14.06, -24.10, -25.44, -24.94, -21.35, -17.84, 0.000, 0.000, 0.000, 01:44:02.109
35, -20.94, -26.58, -18.55, -22.26, -24.90, -15.02, -16.83, -22.17, -19.00, -23.78, -14.06, -24.10, -25.44, -24.94, -21.35, -17.84, 0.000, 0.000, 0.000, 01:44:02.112
36, -20.94, -26.58, -18.55, -22.26, -24.90, -15.02, -16.83, -22.17, -18.91, -23.51, -13.70, -24.12, -25.44, -24.63, -21.06, -18.17, 0.024, 0.934, 0.316, 01:44:02.117
37, -20.85, -26.69, -18.53, -22.13, -25.08, -15.02, -16.90, -22.26, -18.91, -23.51, -13.70, -24.12, -25.44, -24.63, -21.06, -18.17, 0.000, 0.000, 0.000, 01:44:02.121
38, -20.85, -26.69, -18.53, -22.13, -25.08, -15.02, -16.90, -22.26, -18.95, -23.58, -13.81, -24.01, -25.44, -24.88, -21.06, -18.06, 0.000, 0.000, 0.000, 01:44:02.125
39, -20.70, -26.53, -18.37, -22.35, -25.28, -14.82, -16.79, -22.04, -18.95, -23.58, -13.81, -24.01, -25.44, -24.88, -21.06, -18.06, 0.000, 0.000, 0.000, 01:44:02.130
40, -20.70, -26.53, -18.37, -22.35, -25.28, -14.82, -16.79, -22.04, -19.00, -23.63, -13.72, -24.01, -25.32, -24.97, -21.01, -18.10, 0.000, 0.000, 0.000, 01:44:02.134
41, -20.74, -26.62, -18.53, -22.31, -24.88, -15.04, -16.72, -22.08, -19.00, -23.63, -13.72, -24.01, -25.32, -24.97, -21.01, -18.10, 0.000, 0.000, 0.000, 01:44:02.138
42, -20.74, -26.62, -18.53, -22.31, -24.88, -15.04, -16.72, -22.08, -18.80, -23.38, -14.06, -23.98, -25.35, -24.81, -21.21, -17.84, 0.000, 0.000, 0.000, 01:44:02.142
43, -20.85, -26.69, -18.44, -22.11, -25.06, -14.82, -16.85, -22.11, -18.80, -23.38, -14.06, -23.98, -25.35, -24.81, -21.21, -17.84, 0.000, 0.000, 0.000, 01:44:02.147
44, -20.85, -26.69, -18.44, -22.11, -25.06, -14.82, -16.85, -22.11, -19.00, -23.72, -14.08, -23.94, -25.44, -24.79, -21.46, -18.04, 0.000, 0.000, 0.000, 01:44:02.150
45, -20.90, -26.69, -18.55, -22.06, -24.97, -14.73, -16.74, -21.95, -19.00, -23.72, -14.08, -23.94, -25.44, -24.79, -21.46, -18.04, 0.030, 0.930, 0.312, 01:44:02.156
46, -20.90, -26.69, -18.55, -22.06, -24.97, -14.73, -16.74, -21.95, -19.09, -23.45, -14.08, -24.12, -25.50, -24.81, -21.19, -18.22, 0.000, 0.000, 0.000, 01:44:02.159
47, -20.94, -26.67, -18.42, -22.11, -24.94, -14.95, -16.90, -22.11, -19.09, -23.45, -14.08, -24.12, -25.50, -24.81, -21.19, -18.22, 0.000, 0.000, 0.000, 01:44:02.163
48, -20.94, -26.67, -18.42, -22.11, -24.94, -14.95, -16.90, -22.11, -19.09, -23.60, -14.19, -23.96, -25.39, -24.79, -21.14, -18.35, 0.000, 0.000, 0.000, 01:44:02.167
49, -20.76, -26.49, -18.62, -22.11, -25.06, -15.04, -16.92, -21.99, -19.09, -23.60, -14.19, -23.96, -25.39, -24.79, -21.14, -18.35, 0.000, 0.000, 0.000, 01:44:02.170
50, -20.76, -26.49, -18.62, -22.11, -25.06, -15.04, -16.92, -21.99, -18.73, -23.40, -13.97, -23.80, -25.55, -24.94, -21.41, -18.08, 0.000, 0.000, 0.000, 01:44:02.176
51, -20.65, -26.60, -18.71, -21.97, -24.90, -15.07, -16.92, -21.90, -18.73, -23.40, -13.97, -23.80, -25.55, -24.94, -21.41, -18.08, 0.000, 0.000, 0.000, 01:44:02.181
52, -20.65, -26.60, -18.71, -21.97, -24.90, -15.07, -16.92, -21.90, -19.00, -23.49, -13.93, -23.96, -25.68, -24.99, -21.26, -18.13, 0.000, 0.000, 0.000, 01:44:02.183
53, -20.65, -26.64, -18.53, -22.04, -24.99, -15.00, -16.65, -22.31, -19.00, -23.49, -13.93, -23.96, -25.68, -24.99, -21.26, -18.13, 0.000, 0.000, 0.000, 01:44:02.187
54, -20.65, -26.64, -18.53, -22.04, -24.99, -15.00, -16.65, -22.31, -18.98, -23.60, -13.97, -23.98, -25.39, -24.92, -21.08, -17.97, 0.000, 0.000, 0.000, 01:44:02.190
55, -20.90, -26.64, -18.62, -22.04, -24.99, -14.95, -16.88, -22.13, -18.98, -23.60, -13.97, -23.98, -25.39, -24.92, -21.08, -17.97, 0.032, 0.936, 0.304, 01:44:02.193
56, -20.90, -26.64, -18.62, -22.04, -24.99, -14.95, -16.88, -22.13, -19.00, -23.45, -14.04, -24.10, -25.35, -24.94, -21.10, -18.10, 0.000, 0.000, 0.000, 01:44:02.197
57, -20.72, -26.60, -18.51, -22.11, -25.10, -14.86, -16.65, -22.28, -19.00, -23.45, -14.04, -24.10, -25.35, -24.94, -21.10, -18.10, 0.000, 0.000, 0.000, 01:44:02.201
58, -20.72, -26.60, -18.51, -22.11, -25.10, -14.86, -16.65, -22.28, -18.80, -23.27, -13.93, -23.89, -25.41, -24.92, -21.12, -18.15, 0.000, 0.000, 0.000, 01:44:02.205
59, -20.85, -26.60, -18.62, -22.11, -24.94, -14.91, -16.96, -22.24, -18.80, -23.27, -13.93, -23.89, -25.41, -24.92, -21.12, -18.15, 0.000, 0.000, 0.000, 01:44:02.209
60, -20.85, -26.60, -18.62, -22.11, -24.94, -14.91, -16.96, -22.24, -18.95, -23.47, -13.88, -23.65, -25.44, -24.90, -21.14, -18.24, 0.000, 0.000, 0.000, 01:44:02.212
61, -20.83, -26.58, -18.42, -22.17, -24.90, -15.00, -16.88, -22.13, -18.95, -23.47, -13.88, -23.65, -25.44, -24.90, -21.14, -18.24, 0.000, 0.000, 0.000, 01:44:02.215
62, -20.83, -26.58, -18.42, -22.17, -24.90, -15.00, -16.88, -22.13, -18.89, -23.63, -14.06, -23.98, -25.30, -24.74, -21.48, -18.10, 0.000, 0.000, 0.000, 01:44:02.220
63, -20.70, -26.78, -18.53, -22.20, -24.92, -14.95, -16.94, -22.17, -18.89, -23.63, -14.06, -23.98, -25.30, -24.74, -21.48, -18.10, 0.000, 0.000, 0.000, 01:44:02.222
64, -20.70, -26.78, -18.53, -22.20, -24.92, -14.95, -16.94, -22.17, -18.98, -23.42, -14.01, -24.32, -25.37, -24.81, -21.12, -18.13, 0.000, 0.000, 0.000, 01:44:02.226
65, -20.85, -26.80, -18.53, -22.06, -25.19, -14.91, -16.74, -22.26, -18.98, -23.42, -14.01, -24.32, -25.37, -24.81, -21.12, -18.13, 0.020, 0.946, 0.312, 01:44:02.230
66, -20.85, -26.80, -18.53, -22.06, -25.19, -14.91, -16.74, -22.26, -18.84, -23.38, -13.90, -23.94, -25.24, -24.88, -21.10, -18.24, 0.000, 0.000, 0.000, 01:44:02.234
67, -20.74, -26.69, -18.44, -22.17, -24.94, -14.95, -16.72, -22.13, -18.84, -23.38, -13.90, -23.94, -25.24, -24.88, -21.10, -18.24, 0.000, 0.000, 0.000, 01:44:02.239
68, -20.74, -26.69, -18.44, -22.17, -24.94, -14.95, -16.72, -22.13, -18.93, -23.45, -14.04, -23.89, -25.48, -24.72, -21.19, -18.13, 0.000, 0.000, 0.000, 01:44:02.244
69, -20.85, -26.64, -18.31, -22.08, -25.01, -14.80, -16.76, -21.97, -18.93, -23.45, -14.04, -23.89, -25.48, -24.72, -21.19, -18.13, 0.000, 0.000, 0.000, 01:44:02.247
70, -20.85, -26.64, -18.31, -22.08, -25.01, -14.80, -16.76, -21.97, -18.75, -23.51, -13.86, -23.96, -25.35, -24.70, -21.28, -18.08, 0.000, 0.000, 0.000, 01:44:02.252
71, -20.76, -26.84, -18.57, -22.06, -24.97, -14.84, -16.61, -21.97, -18.75, -23.51, -13.86, -23.96, -25.35, -24.70, -21.28, -18.08, 0.000, 0.000, 0.000, 01:44:02.254
72, -20.76, -26.84, -18.57, -22.06, -24.97, -14.84, -16.61, -21.97, -18.84, -23.54, -13.93, -24.18, -25.26, -24.94, -21.28, -18.13, 0.000, 0.000, 0.000, 01:44:02.257
73, -20.79, -26.71, -18.73, -22.44, -25.15, -15.02, -16.58, -22.26, -18.84, -23.54, -13.93, -24.18, -25.26, -24.94, -21.28, -18.13, 0.000, 0.000, 0.000, 01:44:02.260
74, -20.79, -26.71, -18.73, -22.44, -25.15, -15.02, -16.58, -22.26, -18.60, -23.60, -13.99, -24.03, -25.30, -24.77, -21.23, -18.13, 0.000, 0.000, 0.000, 01:44:02.264
75, -20.68, -26.71, -18.75, -22.26, -24.90, -15.00, -16.63, -22.26, -18.60, -23.60, -13.99, -24.03, -25.30, -24.77, -21.23, -18.13, 0.018, 0.940, 0.308, 01:44:02.268
76, -20.68, -26.71, -18.75, -22.26, -24.90, -15.00, -16.63, -22.26, -18.98, -23.49, -13.81, -24.05, -25.64, -24.74, -21.21, -18.15, 0.000, 0.000, 0.000, 01:44:02.272
77, -20.79, -26.67, -18.55, -21.97, -25.03, -14.91, -16.67, -22.08, -18.98, -23.49, -13.81, -24.05, -25.64, -24.74, -21.21, -18.15, 0.000, 0.000, 0.000, 01:44:02.276
78, -20.79, -26.67, -18.55, -21.97, -25.03, -14.91, -16.67, -22.08, -18.73, -23.63, -14.06, -24.01, -25.41, -25.01, -21.52, -18.13, 0.000, 0.000, 0.000, 01:44:02.282
79, -20.52, -26.62, -18.42, -22.15, -25.15, -14.93, -16.85, -22.31, -18.73, -23.63, -14.06, -24.01, -25.41, -25.01, -21.52, -18.13, 0.000, 0.000, 0.000, 01:44:02.285
80, -20.52, -26.62, -18.42, -22.15, -25.15, -14.93, -16.85, -22.31, -18.98, -23.51, -14.06, -24.10, -25.41, -24.63, -21.44, -18.31, 0.000, 0.000, 0.000, 01:44:02.289
81, -20.79, -26.58, -18.31, -22.24, -25.06, -14.91, -16.81, -22.33, -18.98, -23.51, -14.06, -24.10, -25.41, -24.63, -21.44, -18.31, 0.000, 0.000, 0.000, 01:44:02.293
82, -20.79, -26.58, -18.31, -22.24, -25.06, -14.91, -16.81, -22.33, -18.80, -23.65, -13.97, -23.94, -25.28, -24.65, -21.32, -18.22, 0.000, 0.000, 0.000, 01:44:02.297
83, -20.74, -26.64, -18.44, -21.97, -25.10, -15.00, -16.65, -22.08, -18.80, -23.65, -13.97, -23.94, -25.28, -24.65, -21.32, -18.22, 0.000, 0.000, 0.000, 01:44:02.303
84, -20.74, -26.64, -18.44, -21.97, -25.10, -15.00, -16.65, -22.08, -19.07, -23.47, -13.93, -23.89, -25.32, -24.94, -21.39, -18.04, 0.000, 0.000, 0.000, 01:44:02.306
85, -20.92, -26.73, -18.66, -22.02, -25.01, -14.91, -16.54, -22.08, -19.07, -23.47, -13.93, -23.89, -25.32, -24.94, -21.39, -18.04, 0.016, 0.934, 0.316, 01:44:02.310
86, -20.92, -26.73, -18.66, -22.02, -25.01, -14.91, -16.54, -22.08, -18.91, -23.58, -13.86, -23.89, -25.50, -25.01, -21.14, -18.19, 0.000, 0.000, 0.000, 01:44:02.317
87, -20.63, -26.51, -18.53, -22.04, -25.21, -14.93, -16.74, -22.22, -18.91, -23.58, -13.86, -23.89, -25.50, -25.01, -21.14, -18.19, 0.000, 0.000, 0.000, 01:44:02.333
88, -20.63, -26.51, -18.53, -22.04, -25.21, -14.93, -16.74, -22.22, -18.75, -23.29, -13.86, -24.12, -25.28, -24.70, -21.32, -18.13, 0.000, 0.000, 0.000, 01:44:02.340
92, -20.63, -26.51, -18.53, -22.04, -25.21, -14.93, -16.74, -22.22, -18.82, -23.58, -13.77, -23.89, -25.15, -24.97, -21.32, -18.19, 0.000, 0.000, 0.000, 01:44:02.343
87, -20.63, -26.51, -18.53, -22.04, -25.21, -14.93, -16.74, -22.22, -18.82, -23.58, -13.77, -23.89, -25.15, -24.97, -21.32, -18.19, 0.000, 0.000, 0.000, 01:44:02.348
94, -20.63, -26.51, -18.53, -22.04, -25.21, -14.93, -16.74, -22.22, -18.73, -23.56, -13.84, -23.83, -25.37, -24.86, -21.26, -18.08, 0.000, 0.000, 0.000, 01:44:02.351
95, -20.61, -26.67, -18.48, -22.17, -24.94, -14.89, -16.81, -22.02, -18.73, -23.56, -13.84, -23.83, -25.37, -24.86, -21.26, -18.08, 0.016, 0.936, 0.320, 01:44:02.356
96, -20.61, -26.67, -18.48, -22.17, -24.94, -14.89, -16.81, -22.02, -19.00, -23.63, -13.84, -24.03, -25.28, -24.92, -21.21, -18.15, 0.000, 0.000, 0.000, 01:44:02.360
97, -20.76, -26.60, -18.31, -22.20, -24.94, -14.91, -16.74, -22.04, -19.00, -23.63, -13.84, -24.03, -25.28, -24.92, -21.21, -18.15, 0.000, 0.000, 0.000, 01:44:02.364
98, -20.76, -26.60, -18.31, -22.20, -24.94, -14.91, -16.74, -22.04, -19.02, -23.56, -14.06, -24.21, -25.30, -24.74, -21.21, -18.33, 0.000, 0.000, 0.000, 01:44:02.368
96, -20.76, -26.60, -18.31, -22.20, -24.94, -14.91, -16.74, -22.04, -19.00, -23.63, -13.84, -24.03, -25.28, -24.92, -21.21, -18.15, 0.000, 0.000, 0.000, 01:44:02.370
101, -20.54, -26.58, -18.40, -21.99, -25.21, -15.00, -16.56, -22.17, -19.00, -23.63, -13.84, -24.03, -25.28, -24.92, -21.21, -18.15, 0.000, 0.000, 0.000, 01:44:02.374
102, -20.54, -26.58, -18.40, -21.99, -25.21, -15.00, -16.56, -22.17, -18.86, -23.45, -13.95, -23.96, -25.39, -24.70, -21.21, -17.99, 0.000, 0.000, 0.000, 01:44:02.377
103, -20.88, -26.84, -18.40, -22.31, -25.08, -15.11, -16.70, -22.08, -18.86, -23.45, -13.95, -23.96, -25.39, -24.70, -21.21, -17.99, 0.000, 0.000, 0.000, 01:44:02.381
104, -20.88, -26.84, -18.40, -22.31, -25.08, -15.11, -16.70, -22.08, -19.13, -23.51, -13.90, -24.07, -25.50, -24.70, -21.26, -18.31, 0.014, 0.930, 0.322, 01:44:02.385
105, -20.83, -26.53, -18.51, -22.06, -24.90, -14.80, -16.47, -22.13, -19.13, -23.51, -13.90, -24.07, -25.50, -24.70, -21.26, -18.31, 0.000, 0.000, 0.000, 01:44:02.389
106, -20.83, -26.53, -18.51, -22.06, -24.90, -14.80, -16.47, -22.13, -18.98, -23.49, -14.01, -24.01, -25.32, -24.68, -21.46, -18.26, 0.000, 0.000, 0.000, 01:44:02.394
107, -20.72, -26.62, -18.42, -22.02, -25.06, -15.13, -16.56, -22.02, -18.98, -23.49, -14.01, -24.01, -25.32, -24.68, -21.46, -18.26, 0.000, 0.000, 0.000, 01:44:02.398
108, -20.72, -26.62, -18.42, -22.02, -25.06, -15.13, -16.56, -22.02, -18.84, -23.45, -14.06, -23.94, -25.48, -24.86, -21.41, -18.33, 0.000, 0.000, 0.000, 01:44:02.402
109, -20.63, -26.64, -18.40, -22.24, -25.12, -14.82, -16.72, -22.06, -18.84, -23.45, -14.06, -23.94, -25.48, -24.86, -21.41, -18.33, 0.000, 0.000, 0.000, 01:44:02.407
110, -20.63, -26.64, -18.40, -22.24, -25.12, -14.82, -16.72, -22.06, -19.18, -23.47, -13.93, -23.98, -25.28, -24.68, -21.35, -18.15, 0.000, 0.000, 0.000, 01:44:02.411
111, -20.90, -26.55, -18.66, -22.11, -25.28, -14.80, -16.88, -22.13, -19.18, -23.47, -13.93, -23.98, -25.28, -24.68, -21.35, -18.15, 0.000, 0.000, 0.000, 01:44:02.416
112, -20.90, -26.55, -18.66, -22.11, -25.28, -14.80, -16.88, -22.13, -19.20, -23.22, -14.01, -24.16, -25.24, -24.68, -21.30, -18.33, 0.000, 0.000, 0.000, 01:44:02.419
113, -20.88, -26.55, -18.46, -22.17, -25.06, -15.09, -16.83, -21.97, -19.20, -23.22, -14.01, -24.16, -25.24, -24.68, -21.30, -18.33, 0.000, 0.000, 0.000, 01:44:02.423
114, -20.88, -26.55, -18.46, -22.17, -25.06, -15.09, -16.83, -21.97, -19.04, -23.42, -13.88, -24.16, -25.39, -24.97, -21.21, -18.19, 0.020, 0.936, 0.316, 01:44:02.427
115, -20.56, -26.58, -18.48, -21.99, -24.92, -15.13, -16.63, -21.95, -19.04, -23.42, -13.88, -24.16, -25.39, -24.97, -21.21, -18.19, 0.000, 0.000, 0.000, 01:44:02.432
116, -20.56, -26.58, -18.48, -21.99, -24.92, -15.13, -16.63, -21.95, -18.86, -23.36, -13.63, -24.25, -25.35, -24.99, -21.26, -18.22, 0.000, 0.000, 0.000, 01:44:02.437
117, -20.83, -26.93, -18.44, -22.02, -24.94, -14.86, -16.67, -21.99, -18.86, -23.36, -13.63, -24.25, -25.35, -24.99, -21.26, -18.22, 0.000, 0.000, 0.000, 01:44:02.440
118, -20.83, -26.93, -18.44, -22.02, -24.94, -14.86, -16.67, -21.99, -18.80, -23.51, -13.72, -24.07, -25.30, -24.79, -21.21, -18.17, 0.000, 0.000, 0.000, 01:44:02.445
119, -20.81, -26.58, -18.60, -21.95, -25.01, -15.09, -16.76, -22.22, -18.80, -23.51, -13.72, -24.07, -25.30, -24.79, -21.21, -18.17, 0.000, 0.000, 0.000, 01:44:02.448
120, -20.81, -26.58, -18.60, -21.95, -25.01, -15.09, -16.76, -22.22, -18.78, -23.47, -13.99, -24.10, -25.28, -24.65, -21.08, -18.19, 0.000, 0.000, 0.000, 01:44:02.453
121, -20.65, -26.55, -18.46, -21.95, -25.01, -14.93, -16.88, -22.11, -18.78, -23.47, -13.99, -24.10, -25.28, -24.65, -21.08, -18.19, 0.000, 0.000, 0.000, 01:44:02.473
122, -20.65, -26.55, -18.46, -21.95, -25.01, -14.93, -16.88, -22.11, -18.91, -23.56, -14.06, -24.18, -25.17, -24.77, -21.39, -18.17, 0.000, 0.000, 0.000, 01:44:02.477
123, -20.74, -26.53, -18.62, -22.22, -25.03, -15.07, -16.61, -22.04, -18.91, -23.56, -14.06, -24.18, -25.17, -24.77, -21.39, -18.17, 0.000, 0.000, 0.000, 01:44:02.481
127, -20.72, -26.55, -18.62, -22.04, -25.12, -14.75, -16.83, -21.99, -18.91, -23.56, -14.06, -24.18, -25.17, -24.77, -21.39, -18.17, 0.000, 0.000, 0.000, 01:44:02.485
128, -20.72, -26.55, -18.62, -22.04, -25.12, -14.75, -16.83, -21.99, -18.80, -23.63, -14.15, -23.98, -25.44, -24.56, -21.19, -18.22, 0.000, 0.000, 0.000, 01:44:02.491
130, -20.72, -26.55, -18.62, -22.04, -25.12, -14.75, -16.83, -21.99, -18.86, -23.65, -14.01, -24.01, -25.32, -24.92, -21.23, -18.17, 0.000, 0.000, 0.000, 01:44:02.494
131, -20.70, -26.55, -18.64, -22.33, -25.12, -15.09, -16.65, -22.20, -18.86, -23.65, -14.01, -24.01, -25.32, -24.92, -21.23, -18.17, 0.000, 0.000, 0.000, 01:44:02.499
132, -20.70, -26.55, -18.64, -22.33, -25.12, -15.09, -16.65, -22.20, -19.02, -23.45, -14.08, -24.16, -25.50, -25.03, -21.28, -18.26, 0.000, 0.000, 0.000, 01:44:02.502
133, -20.72, -26.53, -18.69, -22.06, -25.17, -15.24, -16.61, -22.11, -19.02, -23.45, -14.08, -24.16, -25.50, -25.03, -21.28, -18.26, 0.000, 0.000, 0.000, 01:44:02.507
134, -20.72, -26.53, -18.69, -22.06, -25.17, -15.24, -16.61, -22.11, -18.91, -23.51, -14.19, -23.94, -25.21, -24.99, -21.32, -18.06, 0.020, 0.932, 0.304, 01:44:02.511
135, -20.99, -26.44, -18.44, -22.31, -25.17, -15.07, -16.76, -21.93, -18.91, -23.51, -14.19, -23.94, -25.21, -24.99, -21.32, -18.06, 0.000, 0.000, 0.000, 01:44:02.514
136, -20.99, -26.44, -18.44, -22.31, -25.17, -15.07, -16.76, -21.93, -19.13, -23.54, -13.88, -23.98, -25.39, -24.90, -21.35, -17.93, 0.000, 0.000, 0.000, 01:44:02.517
137, -20.76, -26.64, -18.53, -21.84, -24.99, -14.82, -16.65, -22.08, -19.13, -23.54, -13.88, -23.98, -25.39, -24.90, -21.35, -17.93, 0.000, 0.000, 0.000, 01:44:02.521
138, -20.76, -26.64, -18.53, -21.84, -24.99, -14.82, -16.65, -22.08, -18.80, -23.58, -14.08, -24.23, -25.48, -24.99, -20.97, -18.22, 0.000, 0.000, 0.000, 01:44:02.524
139, -20.79, -26.71, -18.35, -22.04, -25.06, -14.95, -16.76, -22.17, -18.80, -23.58, -14.08, -24.23, -25.48, -24.99, -20.97, -18.22, 0.000, 0.000, 0.000, 01:44:02.528
140, -20.79, -26.71, -18.35, -22.04, -25.06, -14.95, -16.76, -22.17, -19.09, -23.38, -13.88, -24.05, -25.46, -24.90, -21.30, -18.28, 0.000, 0.000, 0.000, 01:44:02.533
141, -20.83, -26.84, -18.51, -22.08, -24.94, -14.91, -16.94, -22.13, -19.09, -23.38, -13.88, -24.05, -25.46, -24.90, -21.30, -18.28, 0.000, 0.000, 0.000, 01:44:02.536
142, -20.83, -26.84, -18.51, -22.08, -24.94, -14.91, -16.94, -22.13, -19.04, -23.72, -13.86, -23.87, -25.46, -24.94, -21.14, -18.08, 0.000, 0.000, 0.000, 01:44:02.541
143, -20.70, -26.67, -18.71, -22.08, -25.17, -14.82, -16.94, -22.11, -19.04, -23.72, -13.86, -23.87, -25.46, -24.94, -21.14, -18.08, 0.000, 0.000, 0.000, 01:44:02.546
144, -20.70, -26.67, -18.71, -22.08, -25.17, -14.82, -16.94, -22.11, -19.13, -23.40, -13.86, -23.80, -25.30, -24.86, -21.28, -17.88, 0.024, 0.934, 0.296, 01:44:02.549
145, -20.74, -26.60, -18.64, -22.13, -24.92, -14.89, -16.70, -22.15, -19.13, -23.40, -13.86, -23.80, -25.30, -24.86, -21.28, -17.88, 0.000, 0.000, 0.000, 01:44:02.554
146, -20.74, -26.60, -18.64, -22.13, -24.92, -14.89, -16.70, -22.15, -18.98, -23.42, -13.90, -24.05, -25.53, -24.86, -21.28, -18.04, 0.000, 0.000, 0.000, 01:44:02.573
147, -20.70, -26.29, -18.40, -22.08, -24.92, -15.11, -16.76, -22.13, -18.98, -23.42, -13.90, -24.05, -25.53, -24.86, -21.28, -18.04, 0.000, 0.000, 0.000, 01:44:02.578
148, -20.70, -26.29, -18.40, -22.08, -24.92, -15.11, -16.76, -22.13, -18.98, -23.54, -13.95, -23.92, -25.66, -24.88, -21.32, -18.22, 0.000, 0.000, 0.000, 01:44:02.583
153, -20.76, -26.46, -18.42, -21.88, -25.10, -14.82, -16.65, -22.17, -18.98, -23.54, -13.95, -23.92, -25.66, -24.88, -21.32, -18.22, 0.000, 0.000, 0.000, 01:44:02.586
154, -20.76, -26.46, -18.42, -21.88, -25.10, -14.82, -16.65, -22.17, -18.82, -23.29, -13.99, -24.18, -25.37, -24.79, -21.10, -18.04, 0.020, 0.936, 0.306, 01:44:02.591
155, -20.92, -26.49, -18.66, -22.13, -25.32, -14.84, -16.70, -22.15, -18.82, -23.29, -13.99, -24.18, -25.37, -24.79, -21.10, -18.04, 0.000, 0.000, 0.000, 01:44:02.594
156, -20.92, -26.49, -18.66, -22.13, -25.32, -14.84, -16.70, -22.15, -18.82, -23.47, -13.95, -24.03, -25.39, -24.68, -21.30, -17.99, 0.000, 0.000, 0.000, 01:44:02.599
157, -20.94, -26.67, -18.57, -22.13, -24.97, -15.00, -16.83, -22.22, -18.82, -23.47, -13.95, -24.03, -25.39, -24.68, -21.30, -17.99, 0.000, 0.000, 0.000, 01:44:02.604
158, -20.94, -26.67, -18.57, -22.13, -24.97, -15.00, -16.83, -22.22, -19.07, -23.54, -13.79, -24.01, -25.30, -24.92, -21.17, -18.04, 0.000, 0.000, 0.000, 01:44:02.607
159, -20.90, -26.71, -18.48, -21.95, -24.94, -14.93, -16.88, -22.02, -19.07, -23.54, -13.79, -24.01, -25.30, -24.92, -21.17, -18.04, 0.000, 0.000, 0.000, 01:44:02.611
160, -20.90, -26.71, -18.48, -21.95, -24.94, -14.93, -16.88, -22.02, -18.98, -23.63, -13.99, -24.03, -25.57, -24.68, -21.35, -18.08, 0.000, 0.000, 0.000, 01:44:02.614
161, -20.76, -26.73, -18.53, -22.20, -25.12, -14.73, -16.79, -22.15, -18.98, -23.63, -13.99, -24.03, -25.57, -24.68, -21.35, -18.08, 0.000, 0.000, 0.000, 01:44:02.618
162, -20.76, -26.73, -18.53, -22.20, -25.12, -14.73, -16.79, -22.15, -18.78, -23.42, -14.04, -24.16, -25.66, -24.70, -21.30, -18.15, 0.000, 0.000, 0.000, 01:44:02.620
163, -20.70, -26.60, -18.62, -22.22, -25.19, -14.91, -16.74, -21.84, -18.78, -23.42, -14.04, -24.16, -25.66, -24.70, -21.30, -18.15, 0.000, 0.000, 0.000, 01:44:02.625
164, -20.70, -26.60, -18.62, -22.22, -25.19, -14.91, -16.74, -21.84, -18.80, -23.36, -14.06, -24.14, -25.35, -24.97, -21.30, -18.26, 0.016, 0.938, 0.302, 01:44:02.627
165, -20.81, -26.62, -18.69, -22.13, -25.08, -14.84, -16.85, -22.24, -18.80, -23.36, -14.06, -24.14, -25.35, -24.97, -21.30, -18.26, 0.000, 0.000, 0.000, 01:44:02.632
166, -20.81, -26.62, -18.69, -22.13, -25.08, -14.84, -16.85, -22.24, -18.98, -23.38, -13.97, -23.92, -25.35, -24.81, -21.48, -17.99, 0.000, 0.000, 0.000, 01:44:02.634
167, -20.92, -26.69, -18.51, -22.06, -25.17, -14.93, -16.83, -22.22, -18.98, -23.38, -13.97, -23.92, -25.35, -24.81, -21.48, -17.99, 0.000, 0.000, 0.000, 01:44:02.638
168, -20.92, -26.69, -18.51, -22.06, -25.17, -14.93, -16.83, -22.22, -18.80, -23.51, -13.90, -24.21, -25.37, -24.68, -21.26, -18.13, 0.000, 0.000, 0.000, 01:44:02.642
169, -20.94, -26.40, -18.46, -21.93, -25.10, -14.93, -16.79, -22.15, -18.80, -23.51, -13.90, -24.21, -25.37, -24.68, -21.26, -18.13, 0.000, 0.000, 0.000, 01:44:02.647
170, -20.94, -26.40, -18.46, -21.93, -25.10, -14.93, -16.79, -22.15, -18.98, -23.47, -13.86, -23.92, -25.46, -24.83, -21.12, -17.99, 0.000, 0.000, 0.000, 01:44:02.650
171, -20.72, -26.60, -18.51, -22.13, -25.06, -15.00, -16.88, -22.17, -18.98, -23.47, -13.86, -23.92, -25.46, -24.83, -21.12, -17.99, 0.000, 0.000, 0.000, 01:44:02.655
172, -20.72, -26.60, -18.51, -22.13, -25.06, -15.00, -16.88, -22.17, -19.00, -23.49, -14.08, -23.96, -25.44, -24.74, -21.26, -18.10, 0.000, 0.000, 0.000, 01:44:02.658
173, -20.79, -26.55, -18.46, -22.33, -25.17, -15.11, -16.83, -22.15, -19.00, -23.49, -14.08, -23.96, -25.44, -24.74, -21.26, -18.10, 0.016, 0.942, 0.306, 01:44:02.663
174, -20.79, -26.55, -18.46, -22.33, -25.17, -15.11, -16.83, -22.15, -18.95, -23.47, -13.90, -24.18, -25.35, -24.90, -21.23, -18.10, 0.000, 0.000, 0.000, 01:44:02.667
175, -20.83, -26.60, -18.51, -22.33, -24.94, -14.91, -16.79, -22.04, -18.95, -23.47, -13.90, -24.18, -25.35, -24.90, -21.23, -18.10, 0.000, 0.000, 0.000, 01:44:02.671
176, -20.83, -26.60, -18.51, -22.33, -24.94, -14.91, -16.79, -22.04, -18.84, -23.25, -13.86, -24.12, -25.21, -24.59, -21.41, -18.06, 0.000, 0.000, 0.000, 01:44:02.676
177, -20.94, -26.73, -18.57, -22.11, -24.94, -15.13, -16.70, -22.02, -18.84, -23.25, -13.86, -24.12, -25.21, -24.59, -21.41, -18.06, 0.000, 0.000, 0.000, 01:44:02.679
178, -20.94, -26.73, -18.57, -22.11, -24.94, -15.13, -16.70, -22.02, -18.80, -23.67, -14.08, -23.67, -25.35, -24.79, -21.23, -18.08, 0.000, 0.000, 0.000, 01:44:02.684
179, -20.83, -26.53, -18.57, -21.99, -25.08, -15.04, -16.92, -22.20, -18.80, -23.67, -14.08, -23.67, -25.35, -24.79, -21.23, -18.08, 0.000, 0.000, 0.000, 01:44:02.688
180, -20.83, -26.53, -18.57, -21.99, -25.08, -15.04, -16.92, -22.20, -19.11, -23.56, -14.01, -24.05, -25.35, -24.97, -21.39, -17.99, 0.000, 0.000, 0.000, 01:44:02.692
181, -20.81, -26.71, -18.57, -22.22, -25.15, -14.95, -16.88, -22.13, -19.11, -23.56, -14.01, -24.05, -25.35, -24.97, -21.39, -17.99, 0.000, 0.000, 0.000, 01:44:02.697
182, -20.81, -26.71, -18.57, -22.22, -25.15, -14.95, -16.88, -22.13, -19.02, -23.47, -13.81, -23.98, -25.41, -24.74, -21.30, -18.13, 0.000, 0.000, 0.000, 01:44:02.700
183, -21.01, -26.55, -18.69, -22.28, -24.97, -15.00, -16.79, -22.33, -19.02, -23.47, -13.81, -23.98, -25.41, -24.74, -21.30, -18.13, 0.014, 0.936, 0.312, 01:44:02.705
184, -21.01, -26.55, -18.69, -22.28, -24.97, -15.00, -16.79, -22.33, -19.20, -23.51, -13.90, -23.89, -25.32, -24.81, -21.23, -18.06, 0.000, 0.000, 0.000, 01:44:02.708
185, -20.68, -26.58, -18.64, -22.11, -25.24, -14.84, -16.79, -22.26, -19.20, -23.51, -13.90, -23.89, -25.32, -24.81, -21.23, -18.06, 0.000, 0.000, 0.000, 01:44:02.714
186, -20.68, -26.58, -18.64, -22.11, -25.24, -14.84, -16.79, -22.26, -19.16, -23.31, -13.99, -23.96, -25.28, -25.06, -21.14, -18.28, 0.000, 0.000, 0.000, 01:44:02.718
187, -20.72, -26.64, -18.42, -22.17, -24.97, -14.95, -16.61, -22.31, -19.16, -23.31, -13.99, -23.96, -25.28, -25.06, -21.14, -18.28, 0.000, 0.000, 0.000, 01:44:02.722
188, -20.72, -26.64, -18.42, -22.17, -24.97, -14.95, -16.61, -22.31, -19.02, -23.58, -13.99, -23.94, -25.28, -24.83, -21.06, -18.24, 0.000, 0.000, 0.000, 01:44:02.726
189, -20.74, -26.73, -18.51, -21.90, -25.12, -14.95, -16.67, -22.08, -19.02, -23.58, -13.99, -23.94, -25.28, -24.83, -21.06, -18.24, 0.000, 0.000, 0.000, 01:44:02.730
190, -20.74, -26.73, -18.51, -21.90, -25.12, -14.95, -16.67, -22.08, -19.11, -23.49, -14.08, -23.98, -25.44, -24.81, -21.26, -17.95, 0.000, 0.000, 0.000, 01:44:02.735
191, -20.83, -26.80, -18.60, -22.08, -25.17, -15.04, -16.72, -21.95, -19.11, -23.49, -14.08, -23.98, -25.44, -24.81, -21.26, -17.95, 0.000, 0.000, 0.000, 01:44:02.739
192, -20.83, -26.80, -18.60, -22.08, -25.17, -15.04, -16.72, -21.95, -19.02, -23.65, -13.70, -23.92, -25.24, -24.90, -21.30, -18.02, 0.000, 0.000, 0.000, 01:44:02.743
193, -20.65, -26.80, -18.51, -22.33, -25.15, -14.91, -16.76, -22.15, -19.02, -23.65, -13.70, -23.92, -25.24, -24.90, -21.30, -18.02, 0.024, 0.940, 0.316, 01:44:02.746
194, -20.65, -26.80, -18.51, -22.33, -25.15, -14.91, -16.76, -22.15, -18.84, -23.45, -14.10, -23.98, -25.75, -25.08, -21.26, -17.97, 0.000, 0.000, 0.000, 01:44:02.750
195, -20.90, -26.51, -18.40, -22.11, -25.35, -15.00, -16.99, -22.11, -18.84, -23.45, -14.10, -23.98, -25.75, -25.08, -21.26, -17.97, 0.000, 0.000, 0.000, 01:44:02.753
196, -20.90, -26.51, -18.40, -22.11, -25.35, -15.00, -16.99, -22.11, -18.95, -23.54, -13.97, -23.96, -25.30, -24.74, -21.30, -18.22, 0.000, 0.000, 0.000, 01:44:02.756
197, -20.68, -26.60, -18.55, -22.04, -25.03, -14.95, -16.72, -22.20, -18.95, -23.54, -13.97, -23.96, -25.30, -24.74, -21.30, -18.22, 0.000, 0.000, 0.000, 01:44:02.759
198, -20.68, -26.60, -18.55, -22.04, -25.03, -14.95, -16.72, -22.20, -18.95, -23.69, -13.79, -23.65, -25.30, -24.86, -21.32, -18.13, 0.000, 0.000, 0.000, 01:44:02.764
199, -20.88, -26.55, -18.75, -21.97, -25.06, -14.91, -16.90, -22.02, -18.95, -23.69, -13.79, -23.65, -25.30, -24.86, -21.32, -18.13, 0.000, 0.000, 0.000, 01:44:02.768
200, -20.88, -26.55, -18.75, -21.97, -25.06, -14.91, -16.90, -22.02, -18.82, -23.51, -13.99, -23.83, -25.37, -24.97, -21.17, -18.08, 0.000, 0.000, 0.000, 01:44:02.772
201, -21.01, -26.73, -18.55, -22.22, -25.06, -14.75, -16.70, -22.11, -18.82, -23.51, -13.99, -23.83, -25.37, -24.97, -21.17, -18.08, 0.000, 0.000, 0.000, 01:44:02.776
202, -21.01, -26.73, -18.55, -22.22, -25.06, -14.75, -16.70, -22.11, -18.89, -23.31, -13.88, -24.05, -25.44, -25.03, -21.17, -18.31, 0.000, 0.000, 0.000, 01:44:02.781
203, -20.79, -26.67, -18.60, -22.13, -25.32, -14.98, -16.81, -22.37, -18.89, -23.31, -13.88, -24.05, -25.44, -25.03, -21.17, -18.31, 0.018, 0.940, 0.318, 01:44:02.785
204, -20.79, -26.67, -18.60, -22.13, -25.32, -14.98, -16.81, -22.37, -18.80, -23.13, -14.17, -23.98, -25.62, -24.92, -21.19, -18.17, 0.000, 0.000, 0.000, 01:44:02.789
205, -20.65, -26.49, -18.35, -21.95, -25.15, -14.64, -16.76, -22.26, -18.80, -23.13, -14.17, -23.98, -25.62, -24.92, -21.19, -18.17, 0.000, 0.000, 0.000, 01:44:02.793
206, -20.65, -26.49, -18.35, -21.95, -25.15, -14.64, -16.76, -22.26, -18.98, -23.34, -13.97, -24.01, -25.21, -25.01, -21.10, -18.19, 0.000, 0.000, 0.000, 01:44:02.798
207, -20.74, -26.58, -18.60, -22.13, -25.15, -14.84, -16.92, -22.02, -18.98, -23.34, -13.97, -24.01, -25.21, -25.01, -21.10, -18.19, 0.000, 0.000, 0.000, 01:44:02.802
208, -20.74, -26.58, -18.60, -22.13, -25.15, -14.84, -16.92, -22.02, -18.86, -23.31, -14.06, -23.94, -25.32, -24.97, -21.23, -18.02, 0.000, 0.000, 0.000, 01:44:02.806
209, -20.74, -26.80, -18.51, -21.82, -25.12, -14.84, -16.65, -22.26, -18.86, -23.31, -14.06, -23.94, -25.32, -24.97, -21.23, -18.02, 0.000, 0.000, 0.000, 01:44:02.810
210, -20.74, -26.80, -18.51, -21.82, -25.12, -14.84, -16.65, -22.26, -18.82, -23.36, -13.93, -24.16, -25.48, -24.94, -21.01, -18.10, 0.000, 0.000, 0.000, 01:44:02.814
211, -20.68, -26.76, -18.51, -22.04, -25.10, -14.95, -16.92, -22.17, -18.82, -23.36, -13.93, -24.16, -25.48, -24.94, -21.01, -18.10, 0.000, 0.000, 0.000, 01:44:02.818
212, -20.68, -26.76, -18.51, -22.04, -25.10, -14.95, -16.92, -22.17, -18.84, -23.42, -13.97, -24.12, -25.28, -24.92, -21.14, -18.22, 0.000, 0.000, 0.000, 01:44:02.821
213, -20.88, -26.80, -18.55, -22.08, -25.12, -15.02, -16.83, -22.17, -18.84, -23.42, -13.97, -24.12, -25.28, -24.92, -21.14, -18.22, 0.022, 0.936, 0.320, 01:44:02.824
214, -20.88, -26.80, -18.55, -22.08, -25.12, -15.02, -16.83, -22.17, -18.95, -23.45, -13.93, -23.98, -25.41, -24.83, -21.03, -17.90, 0.000, 0.000, 0.000, 01:44:02.828
215, -20.70, -26.64, -18.48, -22.22, -25.15, -14.95, -16.65, -22.04, -18.95, -23.45, -13.93, -23.98, -25.41, -24.83, -21.03, -17.90, 0.000, 0.000, 0.000, 01:44:02.831
216, -20.70, -26.64, -18.48, -22.22, -25.15, -14.95, -16.65, -22.04, -18.93, -23.36, -14.24, -24.01, -25.30, -24.72, -21.30, -18.10, 0.000, 0.000, 0.000, 01:44:02.834
217, -20.43, -26.49, -18.80, -21.97, -24.99, -14.98, -16.61, -22.22, -18.93, -23.36, -14.24, -24.01, -25.30, -24.72, -21.30, -18.10, 0.000, 0.000, 0.000, 01:44:02.839
218, -20.43, -26.49, -18.80, -21.97, -24.99, -14.98, -16.61, -22.22, -19.00, -23.49, -13.99, -23.96, -25.46, -24.92, -21.50, -18.15, 0.000, 0.000, 0.000, 01:44:02.844
219, -20.68, -26.73, -18.42, -22.04, -25.06, -14.86, -16.88, -22.08, -19.00, -23.49, -13.99, -23.96, -25.46, -24.92, -21.50, -18.15, 0.000, 0.000, 0.000, 01:44:02.848
220, -20.68, -26.73, -18.42, -22.04, -25.06, -14.86, -16.88, -22.08, -19.07, -23.36, -13.90, -24.07, -25.48, -24.81, -21.19, -17.99, 0.000, 0.000, 0.000, 01:44:02.851
221, -20.70, -26.53, -18.75, -21.97, -25.10, -14.98, -16.79, -22.15, -19.07, -23.36, -13.90, -24.07, -25.48, -24.81, -21.19, -17.99, 0.000, 0.000, 0.000, 01:44:02.855
222, -20.70, -26.53, -18.75, -21.97, -25.10, -14.98, -16.79, -22.15, -19.04, -23.63, -13.86, -24.16, -25.35, -24.79, -21.12, -17.88, 0.000, 0.000, 0.000, 01:44:02.860
223, -20.63, -26.46, -18.64, -22.11, -24.97, -14.82, -16.79, -22.28, -19.04, -23.63, -13.86, -24.16, -25.35, -24.79, -21.12, -17.88, 0.022, 0.936, 0.322, 01:44:02.865
224, -20.63, -26.46, -18.64, -22.11, -24.97, -14.82, -16.79, -22.28, -18.86, -23.51, -13.86, -24.03, -25.30, -24.65, -21.03, -17.99, 0.000, 0.000, 0.000, 01:44:02.869
225, -20.88, -26.69, -18.66, -21.95, -25.12, -14.86, -16.88, -22.37, -18.86, -23.51, -13.86, -24.03, -25.30, -24.65, -21.03, -17.99, 0.000, 0.000, 0.000, 01:44:02.873
226, -20.88, -26.69, -18.66, -21.95, -25.12, -14.86, -16.88, -22.37, -18.93, -23.45, -13.84, -24.10, -25.32, -24.81, -21.06, -18.13, 0.000, 0.000, 0.000, 01:44:02.877
227, -20.72, -26.51, -18.62, -22.04, -25.12, -14.80, -16.79, -22.13, -18.93, -23.45, -13.84, -24.10, -25.32, -24.81, -21.06, -18.13, 0.000, 0.000, 0.000, 01:44:02.881
228, -20.72, -26.51, -18.62, -22.04, -25.12, -14.80, -16.79, -22.13, -18.84, -23.58, -13.99, -24.14, -25.44, -24.72, -21.23, -17.97, 0.000, 0.000, 0.000, 01:44:02.886
