%OpenBCI Raw EEG Data
%
%Sample Rate = 250.0 Hz
%First Column = SampleIndex
%Last Column = Timestamp 
%Other Columns = EEG data in microvolts followed by Accel Data (in G) interleaved with Aux Data
0, 0.00, 0.00, 0.00, 0.00, 0.00, 0.00, 0.00, 0.00, -6697.54, -6657.27, -6883.98, -6636.10, -85866.39, -91929.46, -83749.44, -116083.27, 0.006, 0.962, 0.328, 04:51:57.770
0, 0.00, 0.00, 0.00, 0.00, 0.00, 0.00, 0.00, 0.00, -6772.22, -6750.76, -6969.03, -6720.43, -85202.48, -91240.80, -82989.05, -115250.75, 0.008, 0.928, 0.284, 04:52:00.654
1, -7172.56, -7424.87, -7181.10, -7148.76, -91681.91, -100190.41, -95247.13, -131271.45, -6772.22, -6750.76, -6969.03, -6720.43, -85202.48, -91240.80, -82989.05, -115250.75, 0.000, 0.000, 0.000, 04:52:00.658
2, -7172.56, -7424.87, -7181.10, -7148.76, -91681.91, -100190.41, -95247.13, -131271.45, -6692.42, -6695.33, -6935.92, -6680.11, -85104.31, -91210.09, -83039.90, -115312.63, 0.000, 0.000, 0.000, 04:52:00.661
3, -7172.45, -7414.79, -7181.39, -7145.32, -91686.07, -100191.67, -95247.77, -131269.16, -6692.42, -6695.33, -6935.92, -6680.11, -85104.31, -91210.09, -83039.90, -115312.63, 0.000, 0.000, 0.000, 04:52:00.665
4, -7172.45, -7414.79, -7181.39, -7145.32, -91686.07, -100191.67, -95247.77, -131269.16, -6803.27, -6702.33, -6896.59, -6575.46, -85196.13, -91245.27, -82990.30, -115256.25, 0.000, 0.000, 0.000, 04:52:00.669
5, -7178.60, -7406.18, -7181.12, -7139.82, -91694.14, -100192.18, -95247.71, -131259.08, -6803.27, -6702.33, -6896.59, -6575.46, -85196.13, -91245.27, -82990.30, -115256.25, 0.000, 0.000, 0.000, 04:52:00.673
6, -7178.60, -7406.18, -7181.12, -7139.82, -91694.14, -100192.18, -95247.71, -131259.08, -6692.87, -6694.93, -6935.05, -6678.41, -85105.38, -91210.27, -83038.85, -115311.51, 0.000, 0.000, 0.000, 04:52:00.677
7, -7162.71, -7430.10, -7180.16, -7153.21, -91673.53, -100189.59, -95246.93, -131281.09, -6692.87, -6694.93, -6935.05, -6678.41, -85105.38, -91210.27, -83038.85, -115311.51, 0.004, 0.940, 0.312, 04:52:00.680
8, -7162.71, -7430.10, -7180.16, -7153.21, -91673.53, -100189.59, -95246.93, -131281.09, -6797.10, -6699.53, -6896.12, -6576.82, -85190.84, -91242.34, -82990.21, -115256.32, 0.000, 0.000, 0.000, 04:52:00.686
9, -7181.15, -7385.49, -7178.69, -7128.64, -91703.35, -100191.53, -95245.81, -131245.80, -6797.10, -6699.53, -6896.12, -6576.82, -85190.84, -91242.34, -82990.21, -115256.32, 0.000, 0.000, 0.000, 04:52:00.691
10, -7181.15, -7385.49, -7178.69, -7128.64, -91703.35, -100191.53, -95245.81, -131245.80, -6696.81, -6694.55, -6932.77, -6673.09, -85109.02, -91211.41, -83035.88, -115308.16, 0.000, 0.000, 0.000, 04:52:00.694
11, -7155.44, -7445.81, -7179.45, -7161.39, -91662.35, -100188.07, -95246.62, -131292.80, -6696.81, -6694.55, -6932.77, -6673.09, -85109.02, -91211.41, -83035.88, -115308.16, 0.000, 0.000, 0.000, 04:52:00.698
12, -7155.44, -7445.81, -7179.45, -7161.39, -91662.35, -100188.07, -95246.62, -131292.80, -6790.46, -6699.85, -6900.32, -6585.25, -85186.25, -91241.70, -82995.35, -115261.84, 0.000, 0.000, 0.000, 04:52:00.701
13, -7187.49, -7370.69, -7180.01, -7121.98, -91715.33, -100194.33, -95247.44, -131235.80, -6790.46, -6699.85, -6900.32, -6585.25, -85186.25, -91241.70, -82995.35, -115261.84, 0.000, 0.000, 0.000, 04:52:00.704
14, -7187.49, -7370.69, -7180.01, -7121.98, -91715.33, -100194.33, -95247.44, -131235.80, -6705.88, -6696.11, -6930.94, -6666.34, -85116.89, -91215.55, -83033.29, -115305.36, 0.000, 0.000, 0.000, 04:52:00.709
15, -7150.99, -7460.27, -7180.54, -7169.52, -91654.76, -100188.49, -95248.24, -131303.19, -6705.88, -6696.11, -6930.94, -6666.34, -85116.89, -91215.55, -83033.29, -115305.36, 0.000, 0.000, 0.000, 04:52:00.713
16, -7150.99, -7460.27, -7180.54, -7169.52, -91654.76, -100188.49, -95248.24, -131303.19, -6781.21, -6699.60, -6904.21, -6594.97, -85179.39, -91239.75, -83000.90, -115268.05, 0.002, 0.946, 0.334, 04:52:00.717
17, -7191.67, -7354.39, -7178.08, -7113.42, -91722.99, -100194.35, -95246.81, -131224.72, -6781.21, -6699.60, -6904.21, -6594.97, -85179.39, -91239.75, -83000.90, -115268.05, 0.000, 0.000, 0.000, 04:52:00.721
18, -7191.67, -7354.39, -7178.08, -7113.42, -91722.99, -100194.35, -95246.81, -131224.72, -6712.99, -6693.01, -6921.51, -6650.90, -85123.22, -91215.34, -83023.80, -115295.30, 0.000, 0.000, 0.000, 04:52:00.724
19, -7141.96, -7462.76, -7173.79, -7168.23, -91642.40, -100181.86, -95242.37, -131303.55, -6712.99, -6693.01, -6921.51, -6650.90, -85123.22, -91215.34, -83023.80, -115295.30, 0.000, 0.000, 0.000, 04:52:00.728
20, -7141.96, -7462.76, -7173.79, -7168.23, -91642.40, -100181.86, -95242.37, -131303.55, -6762.97, -6692.76, -6901.73, -6599.49, -85164.19, -91230.09, -83000.12, -115267.96, 0.000, 0.000, 0.000, 04:52:00.733
21, -7191.36, -7338.64, -7173.64, -7103.90, -91725.56, -100191.16, -95242.97, -131214.69, -6762.97, -6692.76, -6901.73, -6599.49, -85164.19, -91230.09, -83000.12, -115267.96, 0.000, 0.000, 0.000, 04:52:00.736
22, -7191.36, -7338.64, -7173.64, -7103.90, -91725.56, -100191.16, -95242.97, -131214.69, -6726.87, -6694.37, -6916.75, -6637.86, -85135.38, -91220.20, -83017.73, -115288.41, 0.000, 0.000, 0.000, 04:52:00.741
23, -7142.75, -7469.42, -7175.63, -7172.88, -91642.06, -100184.16, -95245.07, -131310.34, -6726.87, -6694.37, -6916.75, -6637.86, -85135.38, -91220.20, -83017.73, -115288.41, 0.000, 0.000, 0.000, 04:52:00.745
24, -7142.75, -7469.42, -7175.63, -7172.88, -91642.06, -100184.16, -95245.07, -131310.34, -6752.48, -6694.21, -6908.99, -6614.06, -85156.86, -91229.20, -83008.74, -115277.27, 0.000, 0.000, 0.000, 04:52:00.748
25, -7191.00, -7331.93, -7172.90, -7100.50, -91729.21, -100191.36, -95242.77, -131210.97, -6752.48, -6694.21, -6908.99, -6614.06, -85156.86, -91229.20, -83008.74, -115277.27, 0.000, 0.000, 0.000, 04:52:00.752
26, -7191.00, -7331.93, -7172.90, -7100.50, -91729.21, -100191.36, -95242.77, -131210.97, -6738.31, -6691.22, -6908.54, -6620.09, -85144.56, -91221.96, -83007.88, -115277.20, 0.006, 0.940, 0.310, 04:52:00.756
27, -7137.63, -7465.57, -7172.14, -7169.50, -91639.34, -100180.91, -95242.14, -131306.56, -6738.31, -6691.22, -6908.54, -6620.09, -85144.56, -91221.96, -83007.88, -115277.20, 0.000, 0.000, 0.000, 04:52:00.761
28, -7137.63, -7465.57, -7172.14, -7169.50, -91639.34, -100180.91, -95242.14, -131306.56, -6738.74, -6692.49, -6913.75, -6626.80, -85145.59, -91225.16, -83015.34, -115284.44, 0.000, 0.000, 0.000, 04:52:00.765
29, -7193.55, -7333.20, -7175.76, -7103.27, -91732.49, -100194.53, -95246.46, -131214.45, -6738.74, -6692.49, -6913.75, -6626.80, -85145.59, -91225.16, -83015.34, -115284.44, 0.000, 0.000, 0.000, 04:52:00.768
30, -7193.55, -7333.20, -7175.76, -7103.27, -91732.49, -100194.53, -95246.46, -131214.45, -6755.08, -6694.12, -6905.03, -6608.45, -85159.48, -91229.20, -83003.91, -115272.44, 0.000, 0.000, 0.000, 04:52:00.773
31, -7138.72, -7459.76, -7170.95, -7166.17, -91641.05, -100180.29, -95241.77, -131301.92, -6755.08, -6694.12, -6905.03, -6608.45, -85159.48, -91229.20, -83003.91, -115272.44, 0.000, 0.000, 0.000, 04:52:00.776
32, -7138.72, -7459.76, -7170.95, -7166.17, -91641.05, -100180.29, -95241.77, -131301.92, -6722.11, -6689.56, -6916.28, -6637.80, -85132.56, -91218.63, -83019.49, -115289.84, 0.000, 0.000, 0.000, 04:52:00.780
33, -7190.87, -7335.82, -7175.04, -7104.81, -91728.92, -100193.95, -95246.55, -131217.36, -6722.11, -6689.56, -6916.28, -6637.80, -85132.56, -91218.63, -83019.49, -115289.84, 0.000, 0.000, 0.000, 04:52:00.784
34, -7190.87, -7335.82, -7175.04, -7104.81, -91728.92, -100193.95, -95246.55, -131217.36, -6772.96, -6699.20, -6903.63, -6598.48, -85175.74, -91237.65, -83001.32, -115269.30, 0.000, 0.000, 0.000, 04:52:00.788
35, -7148.94, -7455.40, -7175.58, -7166.77, -91652.66, -100186.20, -95247.53, -131301.39, -6772.96, -6699.20, -6903.63, -6598.48, -85175.74, -91237.65, -83001.32, -115269.30, 0.000, 0.000, 0.000, 04:52:00.794
36, -7148.94, -7455.40, -7175.58, -7166.77, -91652.66, -100186.20, -95247.53, -131301.39, -6712.79, -6692.74, -6924.37, -6653.15, -85126.37, -91218.67, -83028.91, -115300.04, 0.004, 0.932, 0.306, 04:52:00.797
37, -7188.63, -7345.57, -7176.90, -7111.54, -91725.27, -100195.45, -95248.83, -131226.53, -6712.79, -6692.74, -6924.37, -6653.15, -85126.37, -91218.67, -83028.91, -115300.04, 0.000, 0.000, 0.000, 04:52:00.800
38, -7188.63, -7345.57, -7176.90, -7111.54, -91725.27, -100195.45, -95248.83, -131226.53, -6786.66, -6700.94, -6901.15, -6588.38, -85187.73, -91243.62, -82998.06, -115264.66, 0.000, 0.000, 0.000, 04:52:00.804
39, -7154.70, -7445.61, -7177.99, -7162.93, -91663.54, -100189.59, -95250.23, -131295.08, -6786.66, -6700.94, -6901.15, -6588.38, -85187.73, -91243.62, -82998.06, -115264.66, 0.000, 0.000, 0.000, 04:52:00.811
40, -7154.70, -7445.61, -7177.99, -7162.93, -91663.54, -100189.59, -95250.23, -131295.08, -6705.41, -6694.28, -6931.14, -6665.89, -85120.88, -91218.90, -83037.11, -115308.11, 0.000, 0.000, 0.000, 04:52:00.814
41, -7184.23, -7357.66, -7177.68, -7118.67, -91718.32, -100195.67, -95250.15, -131236.03, -6705.41, -6694.28, -6931.14, -6665.89, -85120.88, -91218.90, -83037.11, -115308.11, 0.000, 0.000, 0.000, 04:52:00.816
42, -7184.23, -7357.66, -7177.68, -7118.67, -91718.32, -100195.67, -95250.15, -131236.03, -6795.09, -6699.22, -6895.87, -6577.36, -85194.77, -91245.79, -82992.80, -115258.55, 0.000, 0.000, 0.000, 04:52:00.821
43, -7156.78, -7424.40, -7173.73, -7150.59, -91670.20, -100187.00, -95246.75, -131279.55, -6795.09, -6699.22, -6895.87, -6577.36, -85194.77, -91245.79, -82992.80, -115258.55, 0.000, 0.000, 0.000, 04:52:00.826
44, -7156.78, -7424.40, -7173.73, -7150.59, -91670.20, -100187.00, -95246.75, -131279.55, -6693.74, -6689.65, -6928.35, -6667.84, -85111.33, -91212.41, -83035.56, -115307.62, 0.000, 0.000, 0.000, 04:52:00.828
45, -7173.55, -7364.99, -7172.03, -7120.13, -91703.98, -100189.57, -95245.38, -131240.72, -6693.74, -6689.65, -6928.35, -6667.84, -85111.33, -91212.41, -83035.56, -115307.62, 0.000, 0.000, 0.000, 04:52:00.832
46, -7173.55, -7364.99, -7172.03, -7120.13, -91703.98, -100189.57, -95245.38, -131240.72, -6796.41, -6694.97, -6887.89, -6565.67, -85195.59, -91242.92, -82984.60, -115250.55, 0.002, 0.934, 0.330, 04:52:00.836
47, -7160.83, -7401.94, -7169.59, -7137.34, -91678.96, -100184.96, -95243.64, -131263.08, -6796.41, -6694.97, -6887.89, -6565.67, -85195.59, -91242.92, -82984.60, -115250.55, 0.000, 0.000, 0.000, 04:52:00.842
48, -7160.83, -7401.94, -7169.59, -7137.34, -91678.96, -100184.96, -95243.64, -131263.08, -6688.31, -6688.13, -6927.03, -6668.29, -85107.05, -91209.28, -83034.27, -115306.99, 0.000, 0.000, 0.000, 04:52:00.845
49, -7166.97, -7379.76, -7171.69, -7128.19, -91694.34, -100188.95, -95246.01, -131252.70, -6688.31, -6688.13, -6927.03, -6668.29, -85107.05, -91209.28, -83034.27, -115306.99, 0.000, 0.000, 0.000, 04:52:00.850
50, -7166.97, -7379.76, -7171.69, -7128.19, -91694.34, -100188.95, -95246.01, -131252.70, -6801.59, -6697.83, -6889.66, -6565.51, -85201.38, -91246.99, -82986.70, -115252.12, 0.000, 0.000, 0.000, 04:52:00.853
51, -7170.95, -7384.84, -7171.74, -7130.21, -91694.79, -100189.39, -95246.79, -131252.41, -6801.59, -6697.83, -6889.66, -6565.51, -85201.38, -91246.99, -82986.70, -115252.12, 0.000, 0.000, 0.000, 04:52:00.857
52, -7170.95, -7384.84, -7171.74, -7130.21, -91694.79, -100189.39, -95246.79, -131252.41, -6690.03, -6689.30, -6927.61, -6668.78, -85109.34, -91211.43, -83035.79, -115307.59, 0.000, 0.000, 0.000, 04:52:00.860
53, -7161.74, -7395.75, -7171.51, -7136.96, -91683.90, -100188.31, -95246.44, -131265.33, -6690.03, -6689.30, -6927.61, -6668.78, -85109.34, -91211.43, -83035.79, -115307.59, 0.000, 0.000, 0.000, 04:52:00.864
54, -7161.74, -7395.75, -7171.51, -7136.96, -91683.90, -100188.31, -95246.44, -131265.33, -6800.74, -6697.36, -6890.80, -6567.93, -85200.80, -91247.91, -82988.98, -115254.09, 0.000, 0.000, 0.000, 04:52:00.868
55, -7175.42, -7364.39, -7170.57, -7119.30, -91705.78, -100189.48, -95245.67, -131238.31, -6800.74, -6697.36, -6890.80, -6567.93, -85200.80, -91247.91, -82988.98, -115254.09, 0.000, 0.000, 0.000, 04:52:00.872
56, -7175.42, -7364.39, -7170.57, -7119.30, -91705.78, -100189.48, -95245.67, -131238.31, -6691.96, -6687.19, -6924.46, -6663.26, -85111.28, -91211.09, -83031.90, -115303.52, 0.000, 0.932, 0.312, 04:52:00.877
57, -7151.08, -7409.63, -7169.90, -7143.64, -91671.20, -100185.14, -95244.78, -131274.61, -6691.96, -6687.19, -6924.46, -6663.26, -85111.28, -91211.09, -83031.90, -115303.52, 0.000, 0.000, 0.000, 04:52:00.881
58, -7151.08, -7409.63, -7169.90, -7143.64, -91671.20, -100185.14, -95244.78, -131274.61, -6792.38, -6694.01, -6891.13, -6571.06, -85194.14, -91243.75, -82989.16, -115254.69, 0.000, 0.000, 0.000, 04:52:00.884
59, -7178.64, -7345.50, -7170.17, -7109.93, -91716.45, -100190.10, -95245.45, -131226.48, -6792.38, -6694.01, -6891.13, -6571.06, -85194.14, -91243.75, -82989.16, -115254.69, 0.000, 0.000, 0.000, 04:52:00.889
60, -7178.64, -7345.50, -7170.17, -7109.93, -91716.45, -100190.10, -95245.45, -131226.48, -6699.67, -6688.69, -6923.01, -6657.02, -85118.05, -91213.91, -83028.57, -115299.86, 0.000, 0.000, 0.000, 04:52:00.893
61, -7144.22, -7423.55, -7169.84, -7151.28, -91661.98, -100184.25, -95245.09, -131286.05, -6699.67, -6688.69, -6923.01, -6657.02, -85118.05, -91213.91, -83028.57, -115299.86, 0.000, 0.000, 0.000, 04:52:00.896
62, -7144.22, -7423.55, -7169.84, -7151.28, -91661.98, -100184.25, -95245.09, -131286.05, -6784.02, -6694.48, -6895.40, -6580.22, -85188.24, -91242.16, -82994.44, -115260.34, 0.000, 0.000, 0.000, 04:52:00.900
63, -7183.58, -7329.34, -7169.17, -7101.73, -91725.77, -100191.02, -95245.12, -131215.94, -6784.02, -6694.48, -6895.40, -6580.22, -85188.24, -91242.16, -82994.44, -115260.34, 0.000, 0.000, 0.000, 04:52:00.905
64, -7183.58, -7329.34, -7169.17, -7101.73, -91725.77, -100191.02, -95245.12, -131215.94, -6708.52, -6688.49, -6917.19, -6645.96, -85126.21, -91216.68, -83022.89, -115293.55, 0.000, 0.000, 0.000, 04:52:00.908
65, -7139.82, -7434.17, -7167.96, -7155.91, -91653.41, -100182.62, -95244.38, -131293.31, -6708.52, -6688.49, -6917.19, -6645.96, -85126.21, -91216.68, -83022.89, -115293.55, 0.000, 0.000, 0.000, 04:52:00.911
66, -7139.82, -7434.17, -7167.96, -7155.91, -91653.41, -100182.62, -95244.38, -131293.31, -6770.68, -6691.96, -6897.01, -6589.63, -85177.47, -91237.74, -82998.26, -115265.15, 0.002, 0.934, 0.300, 04:52:00.916
67, -7187.09, -7318.74, -7169.12, -7096.25, -91733.48, -100192.74, -95246.10, -131208.61, -6770.68, -6691.96, -6897.01, -6589.63, -85177.47, -91237.74, -82998.26, -115265.15, 0.000, 0.000, 0.000, 04:52:00.920
68, -7187.09, -7318.74, -7169.12, -7096.25, -91733.48, -100192.74, -95246.10, -131208.61, -6723.69, -6692.31, -6915.36, -6637.28, -85139.76, -91223.88, -83019.78, -115290.47, 0.000, 0.000, 0.000, 04:52:00.924
69, -7138.83, -7444.27, -7170.44, -7162.55, -91651.52, -100185.41, -95247.66, -131300.00, -6723.69, -6692.31, -6915.36, -6637.28, -85139.76, -91223.88, -83019.78, -115290.47, 0.000, 0.000, 0.000, 04:52:00.928
70, -7138.83, -7444.27, -7170.44, -7162.55, -91651.52, -100185.41, -95247.66, -131300.00, -6758.74, -6692.81, -6902.69, -6603.51, -85168.77, -91235.37, -83005.32, -115273.89, 0.000, 0.000, 0.000, 04:52:00.933
71, -7190.00, -7311.90, -7169.48, -7093.80, -91738.64, -100194.46, -95247.35, -131204.53, -6758.74, -6692.81, -6902.69, -6603.51, -85168.77, -91235.37, -83005.32, -115273.89, 0.000, 0.000, 0.000, 04:52:00.936
72, -7190.00, -7311.90, -7169.48, -7093.80, -91738.64, -100194.46, -95247.35, -131204.53, -6737.89, -6694.21, -6910.11, -6624.34, -85152.12, -91229.00, -83013.55, -115283.97, 0.000, 0.000, 0.000, 04:52:00.939
73, -7136.38, -7444.29, -7167.38, -7161.66, -91647.83, -100183.13, -95245.38, -131299.06, -6737.89, -6694.21, -6910.11, -6624.34, -85152.12, -91229.00, -83013.55, -115283.97, 0.000, 0.000, 0.000, 04:52:00.944
74, -7136.38, -7444.29, -7167.38, -7161.66, -91647.83, -100183.13, -95245.38, -131299.06, -6741.53, -6689.21, -6904.34, -6613.41, -85154.60, -91228.09, -83008.63, -115277.80, 0.000, 0.000, 0.000, 04:52:00.948
75, -7186.85, -7305.18, -7164.90, -7088.99, -91736.05, -100191.09, -95243.28, -131200.09, -6741.53, -6689.21, -6904.34, -6613.41, -85154.60, -91228.09, -83008.63, -115277.80, 0.000, 0.000, 0.000, 04:52:00.952
76, -7186.85, -7305.18, -7164.90, -7088.99, -91736.05, -100191.09, -95243.28, -131200.09, -6748.42, -6691.13, -6900.63, -6606.13, -85160.86, -91230.20, -83003.38, -115272.08, 0.008, 0.936, 0.328, 04:52:00.956
77, -7135.82, -7440.47, -7165.88, -7159.58, -91648.74, -100182.48, -95244.16, -131296.44, -6748.42, -6691.13, -6900.63, -6606.13, -85160.86, -91230.20, -83003.38, -115272.08, 0.000, 0.000, 0.000, 04:52:00.960
78, -7135.82, -7440.47, -7165.88, -7159.58, -91648.74, -100182.48, -95244.16, -131296.44, -6730.07, -6689.83, -6911.79, -6628.70, -85145.70, -91226.59, -83017.77, -115287.08, 0.000, 0.000, 0.000, 04:52:00.965
79, -7185.79, -7309.76, -7167.67, -7093.64, -91737.13, -100194.13, -95246.23, -131205.72, -6730.07, -6689.83, -6911.79, -6628.70, -85145.70, -91226.59, -83017.77, -115287.08, 0.000, 0.000, 0.000, 04:52:00.967
80, -7185.79, -7309.76, -7167.67, -7093.64, -91737.13, -100194.13, -95246.23, -131205.72, -6765.25, -6692.85, -6897.41, -6594.08, -85175.01, -91237.27, -82998.71, -115266.42, 0.000, 0.000, 0.000, 04:52:00.972
81, -7137.22, -7432.22, -7165.30, -7155.62, -91653.57, -100183.11, -95244.16, -131291.33, -6765.25, -6692.85, -6897.41, -6594.08, -85175.01, -91237.27, -82998.71, -115266.42, 0.000, 0.000, 0.000, 04:52:00.976
82, -7137.22, -7432.22, -7165.30, -7155.62, -91653.57, -100183.11, -95244.16, -131291.33, -6716.25, -6688.47, -6915.67, -6640.73, -85135.35, -91222.74, -83022.87, -115293.52, 0.000, 0.000, 0.000, 04:52:00.980
83, -7184.45, -7316.64, -7168.56, -7098.49, -91733.79, -100195.40, -95247.98, -131212.89, -6716.25, -6688.47, -6915.67, -6640.73, -85135.35, -91222.74, -83022.87, -115293.52, 0.000, 0.000, 0.000, 04:52:00.985
84, -7184.45, -7316.64, -7168.56, -7098.49, -91733.79, -100195.40, -95247.98, -131212.89, -6781.52, -6697.39, -6895.76, -6584.87, -85189.98, -91245.14, -82995.84, -115263.27, 0.000, 0.000, 0.000, 04:52:00.994
85, -7144.20, -7421.87, -7166.64, -7151.46, -91663.09, -100186.17, -95246.48, -131285.78, -6781.52, -6697.39, -6895.76, -6584.87, -85189.98, -91245.14, -82995.84, -115263.27, 0.008, 0.946, 0.336, 04:52:00.995
86, -7144.20, -7421.87, -7166.64, -7151.46, -91663.09, -100186.17, -95246.48, -131285.78, -6702.48, -6686.99, -6917.69, -6650.14, -85124.29, -91217.63, -83025.93, -115298.12, 0.000, 0.000, 0.000, 04:52:00.998
87, -7175.04, -7322.30, -7163.33, -7099.63, -91721.43, -100190.20, -95243.69, -131218.39, -6702.48, -6686.99, -6917.69, -6650.14, -85124.29, -91217.63, -83025.93, -115298.12, 0.000, 0.000, 0.000, 04:52:01.003
88, -7175.04, -7322.30, -7163.33, -7099.63, -91721.43, -100190.20, -95243.69, -131218.39, -6785.65, -6693.19, -6886.77, -6570.09, -85193.25, -91243.62, -82985.97, -115253.13, 0.000, 0.000, 0.000, 04:52:01.005
89, -7147.01, -7406.63, -7164.02, -7142.75, -91669.80, -100185.68, -95244.69, -131275.36, -6785.65, -6693.19, -6886.77, -6570.09, -85193.25, -91243.62, -82985.97, -115253.13, 0.000, 0.000, 0.000, 04:52:01.008
90, -7147.01, -7406.63, -7164.02, -7142.75, -91669.80, -100185.68, -95244.69, -131275.36, -6693.12, -6687.62, -6922.11, -6660.71, -85117.61, -91216.02, -83031.43, -115304.09, 0.000, 0.000, 0.000, 04:52:01.012
91, -7169.88, -7339.26, -7164.83, -7109.51, -91713.01, -100191.52, -95245.77, -131232.20, -6693.12, -6687.62, -6922.11, -6660.71, -85117.61, -91216.02, -83031.43, -115304.09, 0.000, 0.000, 0.000, 04:52:01.015
92, -7169.88, -7339.26, -7164.83, -7109.51, -91713.01, -100191.52, -95245.77, -131232.20, -6791.87, -6692.87, -6884.09, -6564.48, -85198.59, -91246.21, -82983.80, -115250.62, 0.000, 0.000, 0.000, 04:52:01.019
93, -7150.39, -7388.99, -7161.32, -7132.69, -91677.40, -100184.63, -95242.57, -131262.58, -6791.87, -6692.87, -6884.09, -6564.48, -85198.59, -91246.21, -82983.80, -115250.62, 0.000, 0.000, 0.000, 04:52:01.024
94, -7150.39, -7388.99, -7161.32, -7132.69, -91677.40, -100184.63, -95242.57, -131262.58, -6683.75, -6684.11, -6921.35, -6664.80, -85110.01, -91212.05, -83031.88, -115305.23, 0.000, 0.000, 0.000, 04:52:01.029
95, -7160.67, -7354.39, -7162.46, -7116.77, -91699.21, -100188.52, -95243.84, -131242.59, -6683.75, -6684.11, -6921.35, -6664.80, -85110.01, -91212.05, -83031.88, -115305.23, 0.008, 0.944, 0.316, 04:52:01.033
96, -7160.67, -7354.39, -7162.46, -7116.77, -91699.21, -100188.52, -95243.84, -131242.59, -6792.47, -6691.31, -6882.35, -6561.80, -85199.82, -91246.39, -82982.32, -115249.32, 0.000, 0.000, 0.000, 04:52:01.037
97, -7155.33, -7372.12, -7160.27, -7123.99, -91687.41, -100185.41, -95242.27, -131250.48, -6792.47, -6691.31, -6882.35, -6561.80, -85199.82, -91246.39, -82982.32, -115249.32, 0.000, 0.000, 0.000, 04:52:01.041
98, -7155.33, -7372.12, -7160.27, -7123.99, -91687.41, -100185.41, -95242.27, -131250.48, -6679.55, -6683.44, -6921.66, -6667.15, -85106.99, -91210.47, -83032.10, -115306.21, 0.000, 0.000, 0.000, 04:52:01.043
99, -7152.98, -7373.10, -7162.64, -7127.14, -91687.14, -100188.05, -95244.55, -131256.72, -6679.55, -6683.44, -6921.66, -6667.15, -85106.99, -91210.47, -83032.10, -115306.21, 0.000, 0.000, 0.000, 04:52:01.048
100, -7152.98, -7373.10, -7162.64, -7127.14, -91687.14, -100188.05, -95244.55, -131256.72, -6792.63, -6693.68, -6885.48, -6566.18, -85200.89, -91248.40, -82985.90, -115253.39, 0.000, 0.000, 0.000, 04:52:01.051
101, -7162.97, -7357.12, -7162.64, -7118.02, -91700.73, -100189.61, -95244.87, -131241.34, -6792.63, -6693.68, -6885.48, -6566.18, -85200.89, -91248.40, -82985.90, -115253.39, 0.000, 0.000, 0.000, 04:52:01.056
102, -7162.97, -7357.12, -7162.64, -7118.02, -91700.73, -100189.61, -95244.87, -131241.34, -6682.70, -6686.61, -6923.77, -6668.89, -85110.95, -91213.66, -83034.34, -115308.60, 0.000, 0.000, 0.000, 04:52:01.061
103, -7148.76, -7394.87, -7165.34, -7139.93, -91677.89, -100189.95, -95247.58, -131272.69, -6682.70, -6686.61, -6923.77, -6668.89, -85110.95, -91213.66, -83034.34, -115308.60, 0.000, 0.000, 0.000, 04:52:01.064
104, -7148.76, -7394.87, -7165.34, -7139.93, -91677.89, -100189.95, -95247.58, -131272.69, -6789.25, -6695.35, -6890.42, -6574.68, -85198.88, -91249.61, -82991.98, -115259.49, 0.000, 0.000, 0.000, 04:52:01.068
105, -7169.99, -7342.12, -7163.56, -7111.27, -91712.42, -100192.18, -95246.03, -131231.05, -6789.25, -6695.35, -6890.42, -6574.68, -85198.88, -91249.61, -82991.98, -115259.49, 0.006, 0.932, 0.318, 04:52:01.072
106, -7169.99, -7342.12, -7163.56, -7111.27, -91712.42, -100192.18, -95246.03, -131231.05, -6686.50, -6685.12, -6920.64, -6663.39, -85113.83, -91214.43, -83031.25, -115305.07, 0.000, 0.000, 0.000, 04:52:01.075
107, -7136.84, -7406.63, -7160.69, -7144.62, -91662.11, -100184.38, -95243.10, -131280.42, -6686.50, -6685.12, -6920.64, -6663.39, -85113.83, -91214.43, -83031.25, -115305.07, 0.000, 0.000, 0.000, 04:52:01.079
108, -7136.84, -7406.63, -7160.69, -7144.62, -91662.11, -100184.38, -95243.10, -131280.42, -6775.06, -6688.47, -6888.16, -6577.67, -85187.03, -91242.19, -82991.27, -115259.29, 0.000, 0.000, 0.000, 04:52:01.084
109, -7170.93, -7322.81, -7159.84, -7100.19, -91718.48, -100189.92, -95242.73, -131217.39, -6775.06, -6688.47, -6888.16, -6577.67, -85187.03, -91242.19, -82991.27, -115259.29, 0.000, 0.000, 0.000, 04:52:01.088
110, -7170.93, -7322.81, -7159.84, -7100.19, -91718.48, -100189.92, -95242.73, -131217.39, -6693.12, -6684.20, -6916.05, -6654.14, -85119.91, -91215.88, -83025.93, -115299.48, 0.000, 0.000, 0.000, 04:52:01.093
111, -7130.12, -7419.97, -7159.89, -7151.37, -91652.16, -100182.95, -95242.86, -131290.45, -6693.12, -6684.20, -6916.05, -6654.14, -85119.91, -91215.88, -83025.93, -115299.48, 0.000, 0.000, 0.000, 04:52:01.099
112, -7130.12, -7419.97, -7159.89, -7151.37, -91652.16, -100182.95, -95242.86, -131290.45, -6763.39, -6688.20, -6893.17, -6589.67, -85177.82, -91239.21, -82997.14, -115266.29, 0.000, 0.000, 0.000, 04:52:01.101
113, -7174.98, -7312.78, -7161.45, -7096.46, -91727.24, -100192.70, -95244.71, -131212.47, -6763.39, -6688.20, -6893.17, -6589.67, -85177.82, -91239.21, -82997.14, -115266.29, 0.000, 0.000, 0.000, 04:52:01.106
114, -7174.98, -7312.78, -7161.45, -7096.46, -91727.24, -100192.70, -95244.71, -131212.47, -6706.08, -6688.07, -6915.56, -6647.14, -85131.58, -91222.18, -83023.80, -115297.06, 0.000, 0.000, 0.000, 04:52:01.107
115, -7126.12, -7432.04, -7161.70, -7158.88, -91647.00, -100184.29, -95244.67, -131299.53, -6706.08, -6688.07, -6915.56, -6647.14, -85131.58, -91222.18, -83023.80, -115297.06, 0.002, 0.934, 0.326, 04:52:01.112
116, -7126.12, -7432.04, -7161.70, -7158.88, -91647.00, -100184.29, -95244.67, -131299.53, -6751.30, -6689.50, -6900.61, -6605.10, -85168.73, -91237.23, -83005.99, -115276.15, 0.000, 0.000, 0.000, 04:52:01.117
117, -7177.86, -7308.17, -7163.91, -7095.56, -91733.92, -100196.01, -95247.58, -131211.06, -6751.30, -6689.50, -6900.61, -6605.10, -85168.73, -91237.23, -83005.99, -115276.15, 0.000, 0.000, 0.000, 04:52:01.120
118, -7177.86, -7308.17, -7163.91, -7095.56, -91733.92, -100196.01, -95247.58, -131211.06, -6718.76, -6689.39, -6912.01, -6636.75, -85142.09, -91226.97, -83019.45, -115291.95, 0.000, 0.000, 0.000, 04:52:01.123
119, -7121.94, -7437.61, -7159.84, -7160.81, -91641.05, -100182.39, -95243.41, -131302.22, -6718.76, -6689.39, -6912.01, -6636.75, -85142.09, -91226.97, -83019.45, -115291.95, 0.000, 0.000, 0.000, 04:52:01.128
120, -7121.94, -7437.61, -7159.84, -7160.81, -91641.05, -100182.39, -95243.41, -131302.22, -6732.41, -6684.80, -6902.73, -6616.83, -85153.15, -91229.49, -83010.22, -115281.35, 0.000, 0.000, 0.000, 04:52:01.131
121, -7173.77, -7301.04, -7158.41, -7089.86, -91729.37, -100190.93, -95242.63, -131205.03, -6732.41, -6684.80, -6902.73, -6616.83, -85153.15, -91229.49, -83010.22, -115281.35, 0.000, 0.000, 0.000, 04:52:01.136
122, -7173.77, -7301.04, -7158.41, -7089.86, -91729.37, -100190.93, -95242.63, -131205.03, -6727.74, -6686.81, -6904.25, -6622.13, -85150.09, -91228.33, -83010.91, -115282.98, 0.000, 0.000, 0.000, 04:52:01.139
123, -7123.79, -7440.67, -7160.47, -7162.84, -91640.90, -100183.00, -95244.69, -131304.05, -6727.74, -6686.81, -6904.25, -6622.13, -85150.09, -91228.33, -83010.91, -115282.98, 0.000, 0.000, 0.000, 04:52:01.143
124, -7123.79, -7440.67, -7160.47, -7162.84, -91640.90, -100183.00, -95244.69, -131304.05, -6715.78, -6683.73, -6908.32, -6632.54, -85140.16, -91224.75, -83017.51, -115289.87, 0.000, 0.000, 0.000, 04:52:01.149
125, -7170.35, -7301.96, -7156.45, -7089.64, -91725.14, -100188.63, -95240.87, -131205.23, -6715.78, -6683.73, -6908.32, -6632.54, -85140.16, -91224.75, -83017.51, -115289.87, 0.002, 0.926, 0.320, 04:52:01.151
126, -7170.35, -7301.96, -7156.45, -7089.64, -91725.14, -100188.63, -95240.87, -131205.23, -6738.92, -6685.79, -6898.08, -6608.25, -85159.31, -91230.79, -83003.42, -115274.76, 0.000, 0.000, 0.000, 04:52:01.156
127, -7122.47, -7435.53, -7158.12, -7159.11, -91640.63, -100180.91, -95242.50, -131299.53, -6738.92, -6685.79, -6898.08, -6608.25, -85159.31, -91230.79, -83003.42, -115274.76, 0.000, 0.000, 0.000, 04:52:01.161
128, -7122.47, -7435.53, -7158.12, -7159.11, -91640.63, -100180.91, -95242.50, -131299.53, -6698.19, -6681.29, -6912.92, -6646.31, -85126.17, -91218.36, -83023.79, -115297.06, 0.000, 0.000, 0.000, 04:52:01.164
129, -7167.20, -7310.99, -7157.99, -7095.43, -91720.47, -100189.41, -95242.37, -131212.33, -6698.19, -6681.29, -6912.92, -6646.31, -85126.17, -91218.36, -83023.79, -115297.06, 0.000, 0.000, 0.000, 04:52:01.168
130, -7167.20, -7310.99, -7157.99, -7095.43, -91720.47, -100189.41, -95242.37, -131212.33, -6752.91, -6688.78, -6897.08, -6600.43, -85171.50, -91237.27, -83001.81, -115272.13, 0.000, 0.000, 0.000, 04:52:01.173
131, -7125.98, -7428.78, -7158.62, -7156.02, -91645.66, -100181.37, -95242.95, -131293.89, -6752.91, -6688.78, -6897.08, -6600.43, -85171.50, -91237.27, -83001.81, -115272.13, 0.000, 0.000, 0.000, 04:52:01.176
132, -7125.98, -7428.78, -7158.62, -7156.02, -91645.66, -100181.37, -95242.95, -131293.89, -6683.17, -6678.99, -6917.75, -6659.37, -85113.70, -91213.13, -83030.09, -115303.68, 0.000, 0.000, 0.000, 04:52:01.180
133, -7161.90, -7321.54, -7156.42, -7100.43, -91710.70, -100186.46, -95241.09, -131220.05, -6683.17, -6678.99, -6917.75, -6659.37, -85113.70, -91213.13, -83030.09, -115303.68, 0.000, 0.000, 0.000, 04:52:01.183
134, -7161.90, -7321.54, -7156.42, -7100.43, -91710.70, -100186.46, -95241.09, -131220.05, -6759.75, -6685.94, -6890.84, -6588.67, -85177.60, -91238.03, -82995.53, -115265.26, 0.000, 0.000, 0.000, 04:52:01.188
135, -7129.45, -7415.50, -7155.89, -7148.02, -91650.17, -100179.24, -95240.69, -131282.92, -6759.75, -6685.94, -6890.84, -6588.67, -85177.60, -91238.03, -82995.53, -115265.26, 0.006, 0.928, 0.312, 04:52:01.192
136, -7129.45, -7415.50, -7155.89, -7148.02, -91650.17, -100179.24, -95240.69, -131282.92, -6671.44, -6678.81, -6922.96, -6672.24, -85104.78, -91210.27, -83036.68, -115311.44, 0.000, 0.000, 0.000, 04:52:01.195
137, -7156.67, -7340.36, -7159.38, -7111.43, -91702.79, -100187.78, -95244.18, -131233.91, -6671.44, -6678.81, -6922.96, -6672.24, -85104.78, -91210.27, -83036.68, -115311.44, 0.000, 0.000, 0.000, 04:52:01.201
138, -7156.67, -7340.36, -7159.38, -7111.43, -91702.79, -100187.78, -95244.18, -131233.91, -6767.59, -6686.93, -6891.06, -6584.40, -85184.30, -91241.25, -82994.38, -115263.72, 0.000, 0.000, 0.000, 04:52:01.203
139, -7130.83, -7402.29, -7155.67, -7140.56, -91657.86, -100178.88, -95240.29, -131272.48, -6767.59, -6686.93, -6891.06, -6584.40, -85184.30, -91241.25, -82994.38, -115263.72, 0.000, 0.000, 0.000, 04:52:01.207
140, -7130.83, -7402.29, -7155.67, -7140.56, -91657.86, -100178.88, -95240.29, -131272.48, -6659.86, -6675.28, -6924.15, -6678.16, -85095.13, -91204.66, -83038.00, -115313.09, 0.000, 0.000, 0.000, 04:52:01.212
141, -7145.56, -7354.55, -7155.91, -7117.18, -91687.73, -100182.75, -95240.65, -131242.08, -6659.86, -6675.28, -6924.15, -6678.16, -85095.13, -91204.66, -83038.00, -115313.09, 0.000, 0.000, 0.000, 04:52:01.215
142, -7145.56, -7354.55, -7155.91, -7117.18, -91687.73, -100182.75, -95240.65, -131242.08, -6771.86, -6687.13, -6890.93, -6581.45, -85188.02, -91243.06, -82994.20, -115262.91, 0.000, 0.000, 0.000, 04:52:01.220
143, -7140.73, -7390.02, -7160.02, -7136.58, -91673.15, -100184.16, -95244.87, -131264.17, -6771.86, -6687.13, -6890.93, -6581.45, -85188.02, -91243.06, -82994.20, -115262.91, 0.000, 0.000, 0.000, 04:52:01.224
144, -7140.73, -7390.02, -7160.02, -7136.58, -91673.15, -100184.16, -95244.87, -131264.17, -6660.82, -6679.77, -6930.36, -6686.95, -85096.51, -91208.32, -83045.27, -115320.71, 0.000, 0.938, 0.322, 04:52:01.227
145, -7139.82, -7373.30, -7157.54, -7127.77, -91676.84, -100182.59, -95242.55, -131256.13, -6660.82, -6679.77, -6930.36, -6686.95, -85096.51, -91208.32, -83045.27, -115320.71, 0.000, 0.000, 0.000, 04:52:01.232
146, -7139.82, -7373.30, -7157.54, -7127.77, -91676.84, -100182.59, -95242.55, -131256.13, -6769.90, -6684.60, -6888.47, -6579.64, -85186.34, -91241.18, -82993.05, -115261.80, 0.000, 0.000, 0.000, 04:52:01.234
147, -7145.47, -7368.68, -7156.69, -7124.42, -91681.20, -100182.37, -95242.16, -131247.97, -6769.90, -6684.60, -6888.47, -6579.64, -85186.34, -91241.18, -82993.05, -115261.80, 0.000, 0.000, 0.000, 04:52:01.239
148, -7145.47, -7368.68, -7156.69, -7124.42, -91681.20, -100182.37, -95242.16, -131247.97, -6659.25, -6678.08, -6927.41, -6684.15, -85095.75, -91206.45, -83042.85, -115318.75, 0.000, 0.000, 0.000, 04:52:01.244
149, -7134.88, -7389.35, -7157.43, -7136.60, -91665.64, -100181.41, -95243.04, -131267.50, -6659.25, -6678.08, -6927.41, -6684.15, -85095.75, -91206.45, -83042.85, -115318.75, 0.000, 0.000, 0.000, 04:52:01.247
150, -7134.88, -7389.35, -7157.43, -7136.60, -91665.64, -100181.41, -95243.04, -131267.50, -6768.26, -6685.50, -6890.57, -6583.35, -85185.76, -91241.90, -82996.00, -115264.97, 0.000, 0.000, 0.000, 04:52:01.252
151, -7153.23, -7349.79, -7156.74, -7115.07, -91693.70, -100183.64, -95242.75, -131235.95, -6768.26, -6685.50, -6890.57, -6583.35, -85185.76, -91241.90, -82996.00, -115264.97, 0.000, 0.000, 0.000, 04:52:01.255
152, -7153.23, -7349.79, -7156.74, -7115.07, -91693.70, -100183.64, -95242.75, -131235.95, -6664.11, -6678.08, -6925.64, -6678.77, -85100.09, -91208.01, -83040.10, -115315.40, 0.000, 0.000, 0.000, 04:52:01.259
153, -7128.08, -7404.89, -7157.43, -7145.09, -91655.63, -100180.54, -95243.44, -131279.92, -6664.11, -6678.08, -6925.64, -6678.77, -85100.09, -91208.01, -83040.10, -115315.40, 0.000, 0.000, 0.000, 04:52:01.263
154, -7128.08, -7404.89, -7157.43, -7145.09, -91655.63, -100180.54, -95243.44, -131279.92, -6762.68, -6685.05, -6893.66, -6589.54, -85181.83, -91241.07, -83000.20, -115269.13, -0.002, 0.928, 0.314, 04:52:01.266
155, -7160.60, -7332.20, -7157.70, -7106.87, -91706.39, -100186.08, -95244.16, -131225.92, -6762.68, -6685.05, -6893.66, -6589.54, -85181.83, -91241.07, -83000.20, -115269.13, 0.000, 0.000, 0.000, 04:52:01.272
156, -7160.60, -7332.20, -7157.70, -7106.87, -91706.39, -100186.08, -95244.16, -131225.92, -6675.84, -6680.80, -6924.93, -6672.46, -85110.39, -91213.95, -83038.98, -115313.16, 0.000, 0.000, 0.000, 04:52:01.276
157, -7126.54, -7419.50, -7159.55, -7153.81, -91649.23, -100181.84, -95245.77, -131291.95, -6675.84, -6680.80, -6924.93, -6672.46, -85110.39, -91213.95, -83038.98, -115313.16, 0.000, 0.000, 0.000, 04:52:01.279
158, -7126.54, -7419.50, -7159.55, -7153.81, -91649.23, -100181.84, -95245.77, -131291.95, -6753.15, -6682.93, -6896.18, -6596.89, -85173.82, -91237.80, -83004.09, -115273.24, 0.000, 0.000, 0.000, 04:52:01.284
159, -7161.79, -7314.05, -7154.64, -7096.34, -91712.60, -100184.36, -95241.38, -131212.78, -6753.15, -6682.93, -6896.18, -6596.89, -85173.82, -91237.80, -83004.09, -115273.24, 0.000, 0.000, 0.000, 04:52:01.288
160, -7161.79, -7314.05, -7154.64, -7096.34, -91712.60, -100184.36, -95241.38, -131212.78, -6683.77, -6678.23, -6917.91, -6658.70, -85116.80, -91214.63, -83030.83, -115304.73, 0.000, 0.000, 0.000, 04:52:01.290
161, -7116.21, -7424.71, -7153.83, -7153.65, -91637.08, -100175.73, -95240.98, -131293.38, -6683.77, -6678.23, -6917.91, -6658.70, -85116.80, -91214.63, -83030.83, -115304.73, 0.000, 0.000, 0.000, 04:52:01.296
162, -7116.21, -7424.71, -7153.83, -7153.65, -91637.08, -100175.73, -95240.98, -131293.38, -6735.90, -6676.69, -6894.84, -6602.75, -85159.14, -91228.98, -83004.16, -115274.55, 0.000, 0.000, 0.000, 04:52:01.300
163, -7161.86, -7300.06, -7150.68, -7087.20, -91715.71, -100181.74, -95238.50, -131202.13, -6735.90, -6676.69, -6894.84, -6602.75, -85159.14, -91228.98, -83004.16, -115274.55, 0.000, 0.000, 0.000, 04:52:01.304
164, -7161.86, -7300.06, -7150.68, -7087.20, -91715.71, -100181.74, -95238.50, -131202.13, -6693.34, -6675.88, -6909.28, -6642.92, -85124.54, -91215.41, -83021.57, -115295.21, 0.008, 0.922, 0.294, 04:52:01.308
165, -7113.33, -7431.17, -7153.21, -7156.69, -91632.38, -100175.11, -95240.84, -131297.89, -6693.34, -6675.88, -6909.28, -6642.92, -85124.54, -91215.41, -83021.57, -115295.21, 0.000, 0.000, 0.000, 04:52:01.310
166, -7113.33, -7431.17, -7153.21, -7156.69, -91632.38, -100175.11, -95240.84, -131297.89, -6725.59, -6679.08, -6903.56, -6619.20, -85151.96, -91228.64, -83014.73, -115285.65, 0.000, 0.000, 0.000, 04:52:01.315
167, -7167.44, -7299.16, -7155.35, -7089.30, -91723.82, -100186.91, -95243.24, -131203.81, -6725.59, -6679.08, -6903.56, -6619.20, -85151.96, -91228.64, -83014.73, -115285.65, 0.000, 0.000, 0.000, 04:52:01.319
168, -7167.44, -7299.16, -7155.35, -7089.30, -91723.82, -100186.91, -95243.24, -131203.81, -6710.84, -6679.55, -6908.37, -6633.15, -85140.09, -91223.77, -83019.65, -115291.73, 0.000, 0.000, 0.000, 04:52:01.322
169, -7112.53, -7432.85, -7153.47, -7157.79, -91631.78, -100175.17, -95241.25, -131299.31, -6710.84, -6679.55, -6908.37, -6633.15, -85140.09, -91223.77, -83019.65, -115291.73, 0.000, 0.000, 0.000, 04:52:01.328
170, -7112.53, -7432.85, -7153.47, -7157.79, -91631.78, -100175.17, -95241.25, -131299.31, -6708.65, -6674.45, -6906.04, -6629.86, -85137.63, -91221.78, -83019.14, -115290.63, 0.000, 0.000, 0.000, 04:52:01.332
171, -7162.95, -7294.27, -7152.02, -7085.82, -91720.72, -100183.69, -95240.29, -131201.09, -6708.65, -6674.45, -6906.04, -6629.86, -85137.63, -91221.78, -83019.14, -115290.63, 0.000, 0.000, 0.000, 04:52:01.336
172, -7162.95, -7294.27, -7152.02, -7085.82, -91720.72, -100183.69, -95240.29, -131201.09, -6723.02, -6676.62, -6899.96, -6615.96, -85150.15, -91225.98, -83010.60, -115281.58, 0.000, 0.000, 0.000, 04:52:01.339
173, -7112.68, -7426.43, -7151.19, -7153.59, -91632.54, -100173.50, -95239.69, -131293.92, -6723.02, -6676.62, -6899.96, -6615.96, -85150.15, -91225.98, -83010.60, -115281.58, 0.000, 0.000, 0.000, 04:52:01.342
174, -7112.68, -7426.43, -7151.19, -7153.59, -91632.54, -100173.50, -95239.69, -131293.92, -6695.44, -6673.58, -6910.96, -6642.98, -85127.53, -91218.12, -83025.91, -115298.36, 0.006, 0.916, 0.282, 04:52:01.347
175, -7163.33, -7298.22, -7153.74, -7089.17, -91720.41, -100185.59, -95242.95, -131206.56, -6695.44, -6673.58, -6910.96, -6642.98, -85127.53, -91218.12, -83025.91, -115298.36, 0.000, 0.000, 0.000, 04:52:01.350
176, -7163.33, -7298.22, -7153.74, -7089.17, -91720.41, -100185.59, -95242.95, -131206.56, -6740.35, -6679.80, -6896.99, -6603.67, -85165.24, -91233.29, -83006.09, -115276.26, 0.000, 0.000, 0.000, 04:52:01.355
177, -7117.15, -7419.01, -7152.74, -7150.68, -91640.72, -100176.07, -95242.10, -131290.23, -6740.35, -6679.80, -6896.99, -6603.67, -85165.24, -91233.29, -83006.09, -115276.26, 0.000, 0.000, 0.000, 04:52:01.360
178, -7117.15, -7419.01, -7152.74, -7150.68, -91640.72, -100176.07, -95242.10, -131290.23, -6683.73, -6673.54, -6916.05, -6654.78, -85118.50, -91215.05, -83031.81, -115305.25, 0.000, 0.000, 0.000, 04:52:01.363
179, -7158.84, -7303.14, -7152.63, -7091.85, -91714.66, -100184.47, -95242.27, -131211.95, -6683.73, -6673.54, -6916.05, -6654.78, -85118.50, -91215.05, -83031.81, -115305.25, 0.000, 0.000, 0.000, 04:52:01.367
180, -7158.84, -7303.14, -7152.63, -7091.85, -91714.66, -100184.47, -95242.27, -131211.95, -6752.46, -6678.75, -6890.26, -6588.85, -85175.43, -91236.55, -82998.95, -115268.34, 0.000, 0.000, 0.000, 04:52:01.370
181, -7121.78, -7402.50, -7150.50, -7141.38, -91647.67, -100175.35, -95240.35, -131279.55, -6752.46, -6678.75, -6890.26, -6588.85, -85175.43, -91236.55, -82998.95, -115268.34, 0.000, 0.000, 0.000, 04:52:01.375
182, -7121.78, -7402.50, -7150.50, -7141.38, -91647.67, -100175.35, -95240.35, -131279.55, -6673.05, -6671.35, -6917.62, -6662.14, -85109.54, -91211.32, -83034.96, -115308.82, 0.000, 0.000, 0.000, 04:52:01.378
183, -7154.46, -7310.81, -7150.97, -7095.54, -91706.25, -100182.66, -95241.12, -131218.13, -6673.05, -6671.35, -6917.62, -6662.14, -85109.54, -91211.32, -83034.96, -115308.82, 0.000, 0.000, 0.000, 04:52:01.384
184, -7154.46, -7310.81, -7150.97, -7095.54, -91706.25, -100182.66, -95241.12, -131218.13, -6762.70, -6677.16, -6884.02, -6575.93, -85183.50, -91238.92, -82992.59, -115261.04, 0.006, 0.940, 0.318, 04:52:01.388
185, -7129.80, -7385.57, -7150.14, -7132.78, -91658.91, -100176.73, -95240.76, -131267.50, -6762.70, -6677.16, -6884.02, -6575.93, -85183.50, -91238.92, -82992.59, -115261.04, 0.000, 0.000, 0.000, 04:52:01.391
186, -7129.80, -7385.57, -7150.14, -7132.78, -91658.91, -100176.73, -95240.76, -131267.50, -6667.28, -6672.04, -6920.32, -6669.31, -85105.83, -91210.67, -83039.12, -115313.38, 0.000, 0.000, 0.000, 04:52:01.396
187, -7150.19, -7324.49, -7151.53, -7103.18, -91698.95, -100182.91, -95242.63, -131228.98, -6667.28, -6672.04, -6920.32, -6669.31, -85105.83, -91210.67, -83039.12, -115313.38, 0.000, 0.000, 0.000, 04:52:01.398
188, -7150.19, -7324.49, -7151.53, -7103.18, -91698.95, -100182.91, -95242.63, -131228.98, -6772.56, -6679.53, -6883.17, -6570.07, -85192.73, -91243.91, -82991.53, -115259.36, 0.000, 0.000, 0.000, 04:52:01.403
189, -7134.77, -7367.05, -7150.59, -7123.30, -91672.26, -100178.81, -95241.65, -131254.73, -6772.56, -6679.53, -6883.17, -6570.07, -85192.73, -91243.91, -82991.53, -115259.36, 0.000, 0.000, 0.000, 04:52:01.407
190, -7134.77, -7367.05, -7150.59, -7123.30, -91672.26, -100178.81, -95241.65, -131254.73, -6663.30, -6670.90, -6919.79, -6670.03, -85102.48, -91208.44, -83038.92, -115313.27, 0.000, 0.000, 0.000, 04:52:01.412
191, -7139.46, -7335.62, -7148.94, -7107.68, -91686.96, -100179.40, -95240.27, -131237.44, -6663.30, -6670.90, -6919.79, -6670.03, -85102.48, -91208.44, -83038.92, -115313.27, 0.000, 0.000, 0.000, 04:52:01.415
192, -7139.46, -7335.62, -7148.94, -7107.68, -91686.96, -100179.40, -95240.27, -131237.44, -6773.14, -6676.42, -6877.99, -6561.87, -85193.20, -91241.96, -82986.62, -115253.88, 0.000, 0.000, 0.000, 04:52:01.419
193, -7138.52, -7342.61, -7146.84, -7109.22, -91682.56, -100177.38, -95238.86, -131237.39, -6773.14, -6676.42, -6877.99, -6561.87, -85193.20, -91241.96, -82986.62, -115253.88, 0.000, 0.000, 0.000, 04:52:01.423
194, -7138.52, -7342.61, -7146.84, -7109.22, -91682.56, -100177.38, -95238.86, -131237.39, -6661.38, -6668.98, -6916.21, -6665.96, -85100.87, -91206.38, -83035.74, -115310.16, 0.002, 0.940, 0.306, 04:52:01.426
195, -7130.83, -7347.64, -7145.58, -7112.75, -91674.00, -100175.71, -95237.88, -131245.50, -6661.38, -6668.98, -6916.21, -6665.96, -85100.87, -91206.38, -83035.74, -115310.16, 0.000, 0.000, 0.000, 04:52:01.431
196, -7130.83, -7347.64, -7145.58, -7112.75, -91674.00, -100175.71, -95237.88, -131245.50, -6769.90, -6673.47, -6874.75, -6559.16, -85190.20, -91239.57, -82984.34, -115251.85, 0.000, 0.000, 0.000, 04:52:01.435
197, -7144.13, -7319.84, -7143.91, -7096.52, -91693.27, -100176.45, -95236.89, -131221.39, -6769.90, -6673.47, -6874.75, -6559.16, -85190.20, -91239.57, -82984.34, -115251.85, 0.000, 0.000, 0.000, 04:52:01.438
198, -7144.13, -7319.84, -7143.91, -7096.52, -91693.27, -100176.45, -95236.89, -131221.39, -6666.74, -6670.30, -6915.18, -6662.43, -85106.37, -91209.02, -83034.38, -115308.66, 0.000, 0.000, 0.000, 04:52:01.444
199, -7127.46, -7366.67, -7149.00, -7124.37, -91667.61, -100178.41, -95241.85, -131260.61, -6666.74, -6670.30, -6915.18, -6662.43, -85106.37, -91209.02, -83034.38, -115308.66, 0.000, 0.000, 0.000, 04:52:01.446
200, -7127.46, -7366.67, -7149.00, -7124.37, -91667.61, -100178.41, -95241.85, -131260.61, -6768.87, -6676.26, -6880.07, -6566.81, -85190.68, -91241.96, -82990.21, -115258.17, 0.000, 0.000, 0.000, 04:52:01.451
201, -7150.43, -7302.54, -7145.96, -7088.94, -91707.44, -100179.94, -95239.33, -131211.64, -6768.87, -6676.26, -6880.07, -6566.81, -85190.68, -91241.96, -82990.21, -115258.17, 0.000, 0.000, 0.000, 04:52:01.455
202, -7150.43, -7302.54, -7145.96, -7088.94, -91707.44, -100179.94, -95239.33, -131211.64, -6674.14, -6670.90, -6912.68, -6655.05, -85112.91, -91211.70, -83030.78, -115304.69, 0.000, 0.000, 0.000, 04:52:01.459
203, -7117.94, -7377.80, -7145.47, -7128.69, -91654.82, -100174.26, -95238.95, -131268.55, -6674.14, -6670.90, -6912.68, -6655.05, -85112.91, -91211.70, -83030.78, -115304.69, 0.006, 0.932, 0.298, 04:52:01.463
204, -7117.94, -7377.80, -7145.47, -7128.69, -91654.82, -100174.26, -95238.95, -131268.55, -6756.22, -6671.39, -6878.95, -6570.32, -85180.06, -91235.59, -82990.26, -115258.76, 0.000, 0.000, 0.000, 04:52:01.466
205, -7153.14, -7283.45, -7142.05, -7077.68, -91713.90, -100177.68, -95236.09, -131197.89, -6756.22, -6671.39, -6878.95, -6570.32, -85180.06, -91235.59, -82990.26, -115258.76, 0.000, 0.000, 0.000, 04:52:01.471
206, -7153.14, -7283.45, -7142.05, -7077.68, -91713.90, -100177.68, -95236.09, -131197.89, -6681.50, -6669.13, -6906.40, -6642.92, -85119.20, -91212.84, -83024.10, -115297.31, 0.000, 0.000, 0.000, 04:52:01.474
207, -7113.98, -7389.35, -7144.73, -7134.56, -91646.66, -100173.19, -95238.95, -131276.89, -6681.50, -6669.13, -6906.40, -6642.92, -85119.20, -91212.84, -83024.10, -115297.31, 0.000, 0.000, 0.000, 04:52:01.478
208, -7113.98, -7389.35, -7144.73, -7134.56, -91646.66, -100173.19, -95238.95, -131276.89, -6748.82, -6674.39, -6886.55, -6584.76, -85174.94, -91236.60, -83000.25, -115269.08, 0.000, 0.000, 0.000, 04:52:01.483
209, -7163.33, -7277.03, -7148.15, -7077.84, -91727.69, -100185.19, -95242.81, -131196.27, -6748.82, -6674.39, -6886.55, -6584.76, -85174.94, -91236.60, -83000.25, -115269.08, 0.000, 0.000, 0.000, 04:52:01.486
210, -7163.33, -7277.03, -7148.15, -7077.84, -91727.69, -100185.19, -95242.81, -131196.27, -6698.21, -6674.03, -6905.64, -6635.27, -85133.92, -91221.42, -83023.18, -115295.86, 0.000, 0.000, 0.000, 04:52:01.491
211, -7112.19, -7399.34, -7146.41, -7140.89, -91643.02, -100174.86, -95241.25, -131285.20, -6698.21, -6674.03, -6905.64, -6635.27, -85133.92, -91221.42, -83023.18, -115295.86, 0.000, 0.000, 0.000, 04:52:01.495
212, -7112.19, -7399.34, -7146.41, -7140.89, -91643.02, -100174.86, -95241.25, -131285.20, -6735.72, -6673.52, -6891.53, -6597.56, -85164.93, -91233.02, -83006.76, -115276.77, 0.000, 0.000, 0.000, 04:52:01.499
213, -7165.10, -7269.70, -7148.91, -7075.15, -91733.27, -100187.06, -95244.27, -131194.20, -6735.72, -6673.52, -6891.53, -6597.56, -85164.93, -91233.02, -83006.76, -115276.77, 0.010, 0.930, 0.314, 04:52:01.502
214, -7165.10, -7269.70, -7148.91, -7075.15, -91733.27, -100187.06, -95244.27, -131194.20, -6715.31, -6678.16, -6904.23, -6625.28, -85149.28, -91229.52, -83020.59, -115292.59, 0.000, 0.000, 0.000, 04:52:01.507
215, -7113.58, -7405.42, -7150.10, -7146.46, -91645.14, -100178.98, -95245.41, -131292.59, -6715.31, -6678.16, -6904.23, -6625.28, -85149.28, -91229.52, -83020.59, -115292.59, 0.000, 0.000, 0.000, 04:52:01.511
216, -7113.58, -7405.42, -7150.10, -7146.46, -91645.14, -100178.98, -95245.41, -131292.59, -6724.46, -6675.15, -6899.38, -6613.28, -85156.57, -91231.93, -83016.41, -115287.16, 0.000, 0.000, 0.000, 04:52:01.515
217, -7163.64, -7266.46, -7149.29, -7074.60, -91735.22, -100188.36, -95245.20, -131195.50, -6724.46, -6675.15, -6899.38, -6613.28, -85156.57, -91231.93, -83016.41, -115287.16, 0.000, 0.000, 0.000, 04:52:01.519
218, -7163.64, -7266.46, -7149.29, -7074.60, -91735.22, -100188.36, -95245.20, -131195.50, -6726.80, -6675.84, -6896.70, -6608.61, -85159.07, -91232.11, -83012.12, -115282.85, 0.000, 0.000, 0.000, 04:52:01.523
219, -7107.85, -7398.87, -7145.11, -7141.07, -91641.48, -100174.75, -95241.18, -131288.48, -6726.80, -6675.84, -6896.70, -6608.61, -85159.07, -91232.11, -83012.12, -115282.85, 0.000, 0.000, 0.000, 04:52:01.527
220, -7107.85, -7398.87, -7145.11, -7141.07, -91641.48, -100174.75, -95241.18, -131288.48, -6704.20, -6668.42, -6899.87, -6622.02, -85139.47, -91222.88, -83018.73, -115290.09, 0.000, 0.000, 0.000, 04:52:01.530
221, -7155.24, -7263.04, -7144.09, -7071.06, -91727.84, -100183.80, -95240.78, -131194.44, -6704.20, -6668.42, -6899.87, -6622.02, -85139.47, -91222.88, -83018.73, -115290.09, 0.000, 0.000, 0.000, 04:52:01.534
222, -7155.24, -7263.04, -7144.09, -7071.06, -91727.84, -100183.80, -95240.78, -131194.44, -6737.60, -6672.58, -6888.14, -6591.75, -85167.52, -91233.96, -83003.38, -115273.15, 0.000, 0.000, 0.000, 04:52:01.538
223, -7108.59, -7391.03, -7143.64, -7136.62, -91644.25, -100174.66, -95240.87, -131283.88, -6737.60, -6672.58, -6888.14, -6591.75, -85167.52, -91233.96, -83003.38, -115273.15, 0.008, 0.946, 0.330, 04:52:01.543
224, -7108.59, -7391.03, -7143.64, -7136.62, -91644.25, -100174.66, -95240.87, -131283.88, -6689.83, -6666.79, -6903.63, -6634.53, -85128.67, -91218.74, -83025.59, -115297.87, 0.000, 0.000, 0.000, 04:52:01.547
225, -7152.71, -7268.92, -7143.93, -7074.82, -91723.58, -100184.34, -95242.19, -131201.98, -6689.83, -6666.79, -6903.63, -6634.53, -85128.67, -91218.74, -83025.59, -115297.87, 0.000, 0.000, 0.000, 04:52:01.551
226, -7152.71, -7268.92, -7143.93, -7074.82, -91723.58, -100184.34, -95242.19, -131201.98, -6750.38, -6672.49, -6882.48, -6578.25, -85179.14, -91238.23, -82998.06, -115267.07, 0.000, 0.000, 0.000, 04:52:01.555
227, -7110.16, -7378.13, -7143.06, -7130.39, -91651.63, -100175.82, -95241.43, -131277.41, -6750.38, -6672.49, -6882.48, -6578.25, -85179.14, -91238.23, -82998.06, -115267.07, 0.000, 0.000, 0.000, 04:52:01.560
228, -7110.16, -7378.13, -7143.06, -7130.39, -91651.63, -100175.82, -95241.43, -131277.41, -6678.03, -6665.42, -6907.78, -6644.75, -85119.53, -91215.32, -83031.45, -115304.38, 0.000, 0.000, 0.000, 04:52:01.563
229, -7144.60, -7277.62, -7144.40, -7080.43, -91717.36, -100184.54, -95242.91, -131211.98, -6678.03, -6665.42, -6907.78, -6644.75, -85119.53, -91215.32, -83031.45, -115304.38, 0.000, 0.000, 0.000, 04:52:01.567
230, -7144.60, -7277.62, -7144.40, -7080.43, -91717.36, -100184.54, -95242.91, -131211.98, -6763.01, -6672.35, -6879.29, -6566.74, -85190.23, -91243.26, -82994.39, -115261.98, 0.000, 0.000, 0.000, 04:52:01.571
231, -7114.45, -7361.70, -7143.21, -7123.10, -91662.60, -100178.03, -95242.32, -131269.11, -6763.01, -6672.35, -6879.29, -6566.74, -85190.23, -91243.26, -82994.39, -115261.98, 0.000, 0.000, 0.000, 04:52:01.575
232, -7114.45, -7361.70, -7143.21, -7123.10, -91662.60, -100178.03, -95242.32, -131269.11, -6669.22, -6663.30, -6910.35, -6651.74, -85112.87, -91213.15, -83035.95, -115308.80, 0.000, 0.000, 0.000, 04:52:01.579
233, -7137.63, -7287.00, -7143.15, -7085.84, -91708.20, -100183.33, -95242.57, -131222.48, -6669.22, -6663.30, -6910.35, -6651.74, -85112.87, -91213.15, -83035.95, -115308.80, 0.008, 0.928, 0.314, 04:52:01.583
234, -7137.63, -7287.00, -7143.15, -7085.84, -91708.20, -100183.33, -95242.57, -131222.48, -6771.30, -6670.65, -6875.02, -6556.93, -85197.23, -91246.23, -82991.69, -115258.04, 0.000, 0.000, 0.000, 04:52:01.586
235, -7119.72, -7340.76, -7141.87, -7112.48, -91673.33, -100178.86, -95241.98, -131257.48, -6771.30, -6670.65, -6875.02, -6556.93, -85197.23, -91246.23, -82991.69, -115258.04, 0.000, 0.000, 0.000, 04:52:01.590
236, -7119.72, -7340.76, -7141.87, -7112.48, -91673.33, -100178.86, -95241.98, -131257.48, -6663.88, -6661.36, -6910.71, -6654.78, -85108.96, -91211.56, -83038.76, -115311.66, 0.000, 0.000, 0.000, 04:52:01.596
237, -7132.08, -7299.99, -7143.80, -7094.02, -91699.41, -100183.98, -95244.49, -131236.14, -6663.88, -6661.36, -6910.71, -6654.78, -85108.96, -91211.56, -83038.76, -115311.66, 0.000, 0.000, 0.000, 04:52:01.599
238, -7132.08, -7299.99, -7143.80, -7094.02, -91699.41, -100183.98, -95244.49, -131236.14, -6777.38, -6671.26, -6874.26, -6552.86, -85203.57, -91249.59, -82992.16, -115258.35, 0.000, 0.000, 0.000, 04:52:01.603
239, -7129.02, -7322.59, -7144.89, -7105.42, -91689.53, -100184.05, -95246.59, -131249.59, -6777.38, -6671.26, -6874.26, -6552.86, -85203.57, -91249.59, -82992.16, -115258.35, 0.000, 0.000, 0.000, 04:52:01.606
240, -7129.02, -7322.59, -7144.89, -7105.42, -91689.53, -100184.05, -95246.59, -131249.59, -6665.78, -6664.28, -6914.27, -6658.25, -85112.06, -91214.78, -83042.96, -115316.05, 0.000, 0.000, 0.000, 04:52:01.610
241, -7124.35, -7314.70, -7143.95, -7102.38, -91689.87, -100183.87, -95246.16, -131250.16, -6665.78, -6664.28, -6914.27, -6658.25, -85112.06, -91214.78, -83042.96, -115316.05, 0.000, 0.000, 0.000, 04:52:01.615
242, -7124.35, -7314.70, -7143.95, -7102.38, -91689.87, -100183.87, -95246.16, -131250.16, -6777.90, -6670.03, -6874.03, -6550.74, -85204.58, -91250.08, -82992.94, -115258.48, 0.000, 0.000, 0.000, 04:52:01.618
243, -7132.58, -7300.15, -7144.42, -7094.42, -91702.66, -100185.77, -95247.28, -131238.17, -6777.90, -6670.03, -6874.03, -6550.74, -85204.58, -91250.08, -82992.94, -115258.48, 0.006, 0.920, 0.302, 04:52:01.623
244, -7132.58, -7300.15, -7144.42, -7094.42, -91702.66, -100185.77, -95247.28, -131238.17, -6666.30, -6660.95, -6910.89, -6651.79, -85112.71, -91213.71, -83040.08, -115311.93, 0.000, 0.000, 0.000, 04:52:01.627
245, -7112.97, -7325.81, -7140.89, -7107.45, -91676.91, -100180.52, -95243.95, -131261.67, -6666.30, -6660.95, -6910.89, -6651.79, -85112.71, -91213.71, -83040.08, -115311.93, 0.000, 0.000, 0.000, 04:52:01.631
246, -7112.97, -7325.81, -7140.89, -7107.45, -91676.91, -100180.52, -95243.95, -131261.67, -6770.95, -6663.97, -6871.26, -6548.64, -85198.56, -91245.92, -82991.94, -115256.37, 0.000, 0.000, 0.000, 04:52:01.636
247, -7133.67, -7273.12, -7139.01, -7078.80, -91711.23, -100182.75, -95242.99, -131222.11, -6770.95, -6663.97, -6871.26, -6548.64, -85198.56, -91245.92, -82991.94, -115256.37, 0.000, 0.000, 0.000, 04:52:01.640
248, -7133.67, -7273.12, -7139.01, -7078.80, -91711.23, -100182.75, -95242.99, -131222.11, -6671.15, -6657.06, -6904.90, -6641.06, -85116.55, -91214.09, -83035.07, -115305.60, 0.000, 0.000, 0.000, 04:52:01.642
249, -7107.00, -7337.54, -7140.67, -7114.18, -91668.70, -100180.13, -95245.12, -131273.88, -6671.15, -6657.06, -6904.90, -6641.06, -85116.55, -91214.09, -83035.07, -115305.60, 0.000, 0.000, 0.000, 04:52:01.646
250, -7107.00, -7337.54, -7140.67, -7114.18, -91668.70, -100180.13, -95245.12, -131273.88, -6766.21, -6662.76, -6873.21, -6553.60, -85195.57, -91245.65, -82996.31, -115260.59, 0.000, 0.000, 0.000, 04:52:01.652
251, -7138.72, -7251.17, -7137.85, -7067.82, -91722.98, -100184.00, -95243.41, -131210.23, -6766.21, -6662.76, -6873.21, -6553.60, -85195.57, -91245.65, -82996.31, -115260.59, 0.000, 0.000, 0.000, 04:52:01.655
252, -7138.72, -7251.17, -7137.85, -7067.82, -91722.98, -100184.00, -95243.41, -131210.23, -6681.54, -6657.09, -6899.51, -6629.04, -85126.17, -91217.40, -83029.82, -115300.04, 0.000, 0.000, 0.000, 04:52:01.658
253, -7102.31, -7346.64, -7140.64, -7119.30, -91662.34, -100180.49, -95246.63, -131283.38, -6681.54, -6657.09, -6899.51, -6629.04, -85126.17, -91217.40, -83029.82, -115300.04, 0.006, 0.938, 0.320, 04:52:01.662
254, -7102.31, -7346.64, -7140.64, -7119.30, -91662.34, -100180.49, -95246.63, -131283.38, -6758.54, -6663.10, -6876.25, -6561.24, -85190.36, -91244.18, -83001.50, -115266.42, 0.000, 0.000, 0.000, 04:52:01.666
255, -7145.11, -7236.29, -7140.33, -7061.88, -91736.25, -100188.52, -95247.20, -131204.56, -6758.54, -6663.10, -6876.25, -6561.24, -85190.36, -91244.18, -83001.50, -115266.42, 0.000, 0.000, 0.000, 04:52:01.670
0, -7145.11, -7236.29, -7140.33, -7061.88, -91736.25, -100188.52, -95247.20, -131204.56, -6697.97, -6660.71, -6897.01, -6617.90, -85140.98, -91224.87, -83027.34, -115296.13, 0.000, 0.000, 0.000, 04:52:01.674
1, -7097.89, -7352.83, -7140.71, -7123.12, -91658.35, -100180.72, -95247.71, -131291.22, -6697.97, -6660.71, -6897.01, -6617.90, -85140.98, -91224.87, -83027.34, -115296.13, 0.000, 0.000, 0.000, 04:52:01.678
2, -7097.89, -7352.83, -7140.71, -7123.12, -91658.35, -100180.72, -95247.71, -131291.22, -6746.34, -6659.84, -6878.59, -6569.00, -85180.59, -91239.86, -83006.40, -115271.30, 0.000, 0.000, 0.000, 04:52:01.683
3, -7145.18, -7220.53, -7138.57, -7053.88, -91742.33, -100188.16, -95246.34, -131197.89, -6746.34, -6659.84, -6878.59, -6569.00, -85180.59, -91239.86, -83006.40, -115271.30, 0.000, 0.000, 0.000, 04:52:01.686
4, -7145.18, -7220.53, -7138.57, -7053.88, -91742.33, -100188.16, -95246.34, -131197.89, -6710.13, -6656.77, -6888.43, -6599.40, -85150.76, -91227.19, -83018.98, -115285.84, 0.000, 0.000, 0.000, 04:52:01.690
5, -7089.68, -7349.77, -7135.70, -7119.63, -91651.34, -100175.89, -95243.46, -131290.56, -6710.13, -6656.77, -6888.43, -6599.40, -85150.76, -91227.19, -83018.98, -115285.84, 0.000, 0.000, 0.000, 04:52:01.694
6, -7089.68, -7349.77, -7135.70, -7119.63, -91651.34, -100175.89, -95243.46, -131290.56, -6727.92, -6651.77, -6877.81, -6575.19, -85165.35, -91231.19, -83008.81, -115273.33, 0.000, 0.000, 0.000, 04:52:01.702
7, -7140.78, -7210.11, -7134.90, -7047.64, -91741.84, -100185.32, -95243.91, -131193.97, -6727.92, -6651.77, -6877.81, -6575.19, -85165.35, -91231.19, -83008.81, -115273.33, 0.004, 0.926, 0.316, 04:52:01.704
8, -7140.78, -7210.11, -7134.90, -7047.64, -91741.84, -100185.32, -95243.91, -131193.97, -6720.41, -6651.83, -6878.77, -6580.35, -85159.59, -91228.13, -83009.59, -115274.73, 0.000, 0.000, 0.000, 04:52:01.707
9, -7084.70, -7344.60, -7132.53, -7116.17, -91648.92, -100173.27, -95241.88, -131290.16, -6720.41, -6651.83, -6878.77, -6580.35, -85159.59, -91228.13, -83009.59, -115274.73, 0.000, 0.000, 0.000, 04:52:01.711
10, -7084.70, -7344.60, -7132.53, -7116.17, -91648.92, -100173.27, -95241.88, -131290.16, -6713.21, -6649.80, -6883.02, -6588.11, -85154.22, -91227.16, -83016.99, -115281.82, 0.000, 0.000, 0.000, 04:52:01.714
11, -7138.01, -7208.71, -7135.21, -7048.04, -91741.97, -100186.21, -95245.49, -131197.41, -6713.21, -6649.80, -6883.02, -6588.11, -85154.22, -91227.16, -83016.99, -115281.82, 0.000, 0.000, 0.000, 04:52:01.718
12, -7138.01, -7208.71, -7135.21, -7048.04, -91741.97, -100186.21, -95245.49, -131197.41, -6736.99, -6653.85, -6875.58, -6567.52, -85174.56, -91235.37, -83006.91, -115270.45, 0.000, 0.000, 0.000, 04:52:01.722
13, -7088.94, -7341.52, -7135.84, -7116.66, -91656.37, -100177.48, -95246.70, -131292.20, -6736.99, -6653.85, -6875.58, -6567.52, -85174.56, -91235.37, -83006.91, -115270.45, 0.000, 0.000, 0.000, 04:52:01.726
14, -7088.94, -7341.52, -7135.84, -7116.66, -91656.37, -100177.48, -95246.70, -131292.20, -6698.68, -6647.79, -6887.60, -6600.25, -85143.45, -91223.01, -83024.99, -115289.69, 0.000, 0.000, 0.000, 04:52:01.731
15, -7131.46, -7209.94, -7133.56, -7048.51, -91737.26, -100184.60, -95245.41, -131202.86, -6698.68, -6647.79, -6887.60, -6600.25, -85143.45, -91223.01, -83024.99, -115289.69, 0.000, 0.000, 0.000, 04:52:01.734
16, -7131.46, -7209.94, -7133.56, -7048.51, -91737.26, -100184.60, -95245.41, -131202.86, -6748.24, -6650.63, -6868.13, -6550.94, -85184.20, -91237.70, -83000.72, -115262.29, 0.000, 0.920, 0.294, 04:52:01.739
17, -7086.58, -7326.21, -7132.42, -7107.83, -91659.36, -100175.02, -95244.47, -131283.59, -6748.24, -6650.63, -6868.13, -6550.94, -85184.20, -91237.70, -83000.72, -115262.29, 0.000, 0.000, 0.000, 04:52:01.742
18, -7086.58, -7326.21, -7132.42, -7107.83, -91659.36, -100175.02, -95244.47, -131283.59, -6683.93, -6643.45, -6889.97, -6609.61, -85131.35, -91217.29, -83030.89, -115295.57, 0.000, 0.000, 0.000, 04:52:01.746
19, -7125.89, -7217.51, -7134.03, -7053.47, -91731.06, -100184.43, -95246.62, -131212.00, -6683.93, -6643.45, -6889.97, -6609.61, -85131.35, -91217.29, -83030.89, -115295.57, 0.000, 0.000, 0.000, 04:52:01.751
20, -7125.89, -7217.51, -7134.03, -7053.47, -91731.06, -100184.43, -95246.62, -131212.00, -6760.75, -6650.11, -6864.76, -6539.72, -85195.50, -91242.55, -82998.22, -115257.66, 0.000, 0.000, 0.000, 04:52:01.754
21, -7091.18, -7312.64, -7132.06, -7101.19, -91667.74, -100175.69, -95245.14, -131277.16, -6760.75, -6650.11, -6864.76, -6539.72, -85195.50, -91242.55, -82998.22, -115257.66, 0.000, 0.000, 0.000, 04:52:01.758
22, -7091.18, -7312.64, -7132.06, -7101.19, -91667.74, -100175.69, -95245.14, -131277.16, -6669.40, -6638.11, -6890.95, -6616.29, -85119.59, -91210.98, -83034.13, -115298.36, 0.000, 0.000, 0.000, 04:52:01.764
23, -7116.33, -7226.03, -7130.03, -7057.05, -91718.63, -100180.11, -95244.13, -131222.02, -6669.40, -6638.11, -6890.95, -6616.29, -85119.59, -91210.98, -83034.13, -115298.36, 0.000, 0.000, 0.000, 04:52:01.766
24, -7116.33, -7226.03, -7130.03, -7057.05, -91718.63, -100180.11, -95244.13, -131222.02, -6766.70, -6647.03, -6859.46, -6529.03, -85200.73, -91243.69, -82994.21, -115252.36, 0.000, 0.000, 0.000, 04:52:01.770
25, -7093.84, -7295.74, -7130.97, -7092.21, -91677.17, -100176.52, -95245.54, -131268.34, -6766.70, -6647.03, -6859.46, -6529.03, -85200.73, -91243.69, -82994.21, -115252.36, 0.000, 0.000, 0.000, 04:52:01.774
26, -7093.84, -7295.74, -7130.97, -7092.21, -91677.17, -100176.52, -95245.54, -131268.34, -6660.89, -6637.48, -6893.79, -6623.81, -85113.80, -91209.13, -83039.16, -115303.52, -0.004, 0.930, 0.302, 04:52:01.779
27, -7106.65, -7240.36, -7128.78, -7063.93, -91707.08, -100178.50, -95244.38, -131234.94, -6660.89, -6637.48, -6893.79, -6623.81, -85113.80, -91209.13, -83039.16, -115303.52, 0.000, 0.000, 0.000, 04:52:01.782
28, -7106.65, -7240.36, -7128.78, -7063.93, -91707.08, -100178.50, -95244.38, -131234.94, -6767.97, -6644.32, -6855.03, -6521.59, -85202.09, -91242.84, -82990.59, -115248.34, 0.000, 0.000, 0.000, 04:52:01.787
29, -7096.43, -7274.84, -7126.67, -7079.74, -91684.51, -100174.57, -95243.28, -131254.83, -6767.97, -6644.32, -6855.03, -6521.59, -85202.09, -91242.84, -82990.59, -115248.34, 0.000, 0.000, 0.000, 04:52:01.790
30, -7096.43, -7274.84, -7126.67, -7079.74, -91684.51, -100174.57, -95243.28, -131254.83, -6652.44, -6634.35, -6891.31, -6624.21, -85106.72, -91204.50, -83037.98, -115302.99, 0.000, 0.000, 0.000, 04:52:01.794
31, -7098.04, -7256.34, -7127.41, -7072.00, -91694.01, -100176.52, -95244.22, -131247.67, -6652.44, -6634.35, -6891.31, -6624.21, -85106.72, -91204.50, -83037.98, -115302.99, 0.000, 0.000, 0.000, 04:52:01.797
32, -7098.04, -7256.34, -7127.41, -7072.00, -91694.01, -100176.52, -95244.22, -131247.67, -6767.21, -6643.54, -6854.52, -6520.50, -85202.23, -91242.61, -82990.86, -115248.70, 0.000, 0.000, 0.000, 04:52:01.801
33, -7100.43, -7257.50, -7127.48, -7071.11, -91696.28, -100176.49, -95244.55, -131244.81, -6767.21, -6643.54, -6854.52, -6520.50, -85202.23, -91242.61, -82990.86, -115248.70, 0.000, 0.000, 0.000, 04:52:01.807
34, -7100.43, -7257.50, -7127.48, -7071.11, -91696.28, -100176.49, -95244.55, -131244.81, -6653.98, -6637.24, -6894.98, -6627.98, -85109.65, -91207.32, -83041.89, -115306.50, 0.000, 0.000, 0.000, 04:52:01.811
35, -7092.05, -7279.69, -7131.06, -7085.57, -91684.51, -100178.70, -95248.20, -131268.03, -6653.98, -6637.24, -6894.98, -6627.98, -85109.65, -91207.32, -83041.89, -115306.50, 0.000, 0.000, 0.000, 04:52:01.814
36, -7092.05, -7279.69, -7131.06, -7085.57, -91684.51, -100178.70, -95248.20, -131268.03, -6764.78, -6644.70, -6859.19, -6527.45, -85201.16, -91244.06, -82996.78, -115253.70, 0.004, 0.934, 0.314, 04:52:01.818
37, -7106.47, -7244.60, -7129.04, -7065.14, -91707.93, -100179.35, -95246.13, -131238.36, -6764.78, -6644.70, -6859.19, -6527.45, -85201.16, -91244.06, -82996.78, -115253.70, 0.000, 0.000, 0.000, 04:52:01.822
38, -7106.47, -7244.60, -7129.04, -7065.14, -91707.93, -100179.35, -95246.13, -131238.36, -6657.51, -6638.18, -6896.41, -6628.10, -85112.89, -91210.02, -83043.34, -115306.56, 0.000, 0.000, 0.000, 04:52:01.827
39, -7083.04, -7302.27, -7130.79, -7096.72, -91670.85, -100177.01, -95247.69, -131283.34, -6657.51, -6638.18, -6896.41, -6628.10, -85112.89, -91210.02, -83043.34, -115306.56, 0.000, 0.000, 0.000, 04:52:01.830
40, -7083.04, -7302.27, -7130.79, -7096.72, -91670.85, -100177.01, -95247.69, -131283.34, -6753.47, -6642.60, -6862.30, -6536.97, -85192.27, -91240.78, -83001.61, -115258.24, 0.000, 0.000, 0.000, 04:52:01.834
41, -7109.62, -7232.35, -7126.09, -7057.05, -91713.05, -100177.48, -95243.51, -131227.33, -6753.47, -6642.60, -6862.30, -6536.97, -85192.27, -91240.78, -83001.61, -115258.24, 0.000, 0.000, 0.000, 04:52:01.837
42, -7109.62, -7232.35, -7126.09, -7057.05, -91713.05, -100177.48, -95243.51, -131227.33, -6653.11, -6632.72, -6887.94, -6619.89, -85108.60, -91204.73, -83035.86, -115299.01, 0.000, 0.000, 0.000, 04:52:01.842
43, -7072.02, -7319.41, -7123.86, -7101.57, -91649.73, -100169.09, -95241.34, -131289.61, -6653.11, -6632.72, -6887.94, -6619.89, -85108.60, -91204.73, -83035.86, -115299.01, 0.000, 0.000, 0.000, 04:52:01.847
44, -7072.02, -7319.41, -7123.86, -7101.57, -91649.73, -100169.09, -95241.34, -131289.61, -6735.34, -6640.88, -6864.18, -6550.29, -85177.00, -91233.58, -83006.55, -115265.22, 0.000, 0.000, 0.000, 04:52:01.850
45, -7114.74, -7228.64, -7127.79, -7055.26, -91718.41, -100179.84, -95245.85, -131222.08, -6735.34, -6640.88, -6864.18, -6550.29, -85177.00, -91233.58, -83006.55, -115265.22, 0.000, 0.000, 0.000, 04:52:01.856
46, -7114.74, -7228.64, -7127.79, -7055.26, -91718.41, -100179.84, -95245.85, -131222.08, -6663.26, -6641.24, -6891.36, -6622.08, -85118.48, -91211.45, -83038.85, -115303.10, 0.004, 0.948, 0.310, 04:52:01.858
47, -7071.87, -7346.66, -7129.56, -7117.22, -91642.93, -100173.38, -95247.66, -131306.69, -6663.26, -6641.24, -6891.36, -6622.08, -85118.48, -91211.45, -83038.85, -115303.10, 0.000, 0.000, 0.000, 04:52:01.862
48, -7071.87, -7346.66, -7129.56, -7117.22, -91642.93, -100173.38, -95247.66, -131306.69, -6723.05, -6647.68, -6876.76, -6573.89, -85168.39, -91233.52, -83019.95, -115280.59, 0.000, 0.000, 0.000, 04:52:01.866
49, -7120.66, -7232.26, -7133.13, -7059.42, -91725.90, -100185.25, -95251.40, -131225.28, -6723.05, -6647.68, -6876.76, -6573.89, -85168.39, -91233.52, -83019.95, -115280.59, 0.000, 0.000, 0.000, 04:52:01.869
50, -7120.66, -7232.26, -7133.13, -7059.42, -91725.90, -100185.25, -95251.40, -131225.28, -6673.60, -6644.99, -6892.45, -6618.02, -85127.55, -91216.57, -83038.02, -115301.73, 0.000, 0.000, 0.000, 04:52:01.875
51, -7063.98, -7360.45, -7128.95, -7123.81, -91633.70, -100171.17, -95246.75, -131315.47, -6673.60, -6644.99, -6892.45, -6618.02, -85127.55, -91216.57, -83038.02, -115301.73, 0.000, 0.000, 0.000, 04:52:01.878
52, -7063.98, -7360.45, -7128.95, -7123.81, -91633.70, -100171.17, -95246.75, -131315.47, -6700.05, -6640.17, -6879.02, -6585.72, -85148.63, -91222.96, -83023.70, -115284.52, 0.000, 0.000, 0.000, 04:52:01.882
53, -7110.69, -7222.14, -7124.75, -7050.41, -91718.01, -100176.76, -95242.81, -131216.84, -6700.05, -6640.17, -6879.02, -6585.72, -85148.63, -91222.96, -83023.70, -115284.52, 0.000, 0.000, 0.000, 04:52:01.887
54, -7110.69, -7222.14, -7124.75, -7050.41, -91718.01, -100176.76, -95242.81, -131216.84, -6678.59, -6637.69, -6882.48, -6601.36, -85130.52, -91214.49, -83028.01, -115290.02, 0.000, 0.000, 0.000, 04:52:01.889
55, -7057.59, -7363.02, -7125.04, -7123.03, -91625.92, -100166.92, -95243.02, -131316.56, -6678.59, -6637.69, -6882.48, -6601.36, -85130.52, -91214.49, -83028.01, -115290.02, 0.000, 0.000, 0.000, 04:52:01.894
56, -7057.59, -7363.02, -7125.04, -7123.03, -91625.92, -100166.92, -95243.02, -131316.56, -6680.29, -6635.27, -6882.77, -6599.62, -85131.55, -91215.66, -83030.02, -115291.32, 0.006, 0.936, 0.320, 04:52:01.897
57, -7107.25, -7221.89, -7122.94, -7049.92, -91714.50, -100175.13, -95241.83, -131217.88, -6680.29, -6635.27, -6882.77, -6599.62, -85131.55, -91215.66, -83030.02, -115291.32, 0.000, 0.000, 0.000, 04:52:01.901
58, -7107.25, -7221.89, -7122.94, -7049.92, -91714.50, -100175.13, -95241.83, -131217.88, -6691.33, -6638.22, -6878.44, -6589.47, -85141.55, -91219.14, -83023.48, -115284.86, 0.000, 0.000, 0.000, 04:52:01.907
59, -7061.05, -7363.65, -7127.19, -7124.98, -91629.19, -100169.90, -95246.59, -131319.06, -6691.33, -6638.22, -6878.44, -6589.47, -85141.55, -91219.14, -83023.48, -115284.86, 0.000, 0.000, 0.000, 04:52:01.910
60, -7061.05, -7363.65, -7127.19, -7124.98, -91629.19, -100169.90, -95246.59, -131319.06, -6666.39, -6636.81, -6890.37, -6616.29, -85121.54, -91212.93, -83039.97, -115302.97, 0.000, 0.000, 0.000, 04:52:01.914
61, -7106.63, -7227.64, -7126.16, -7055.22, -91714.39, -100178.62, -95246.37, -131227.22, -6666.39, -6636.81, -6890.37, -6616.29, -85121.54, -91212.93, -83039.97, -115302.97, 0.000, 0.000, 0.000, 04:52:01.917
62, -7106.63, -7227.64, -7126.16, -7055.22, -91714.39, -100178.62, -95246.37, -131227.22, -6707.62, -6640.90, -6876.00, -6577.92, -85155.78, -91225.67, -83021.04, -115281.64, 0.000, 0.000, 0.000, 04:52:01.922
63, -7058.75, -7351.69, -7125.04, -7118.27, -91631.71, -100168.60, -95245.20, -131313.88, -6707.62, -6640.90, -6876.00, -6577.92, -85155.78, -91225.67, -83021.04, -115281.64, 0.000, 0.000, 0.000, 04:52:01.928
64, -7058.75, -7351.69, -7125.04, -7118.27, -91631.71, -100168.60, -95245.20, -131313.88, -6649.29, -6630.69, -6892.38, -6625.12, -85107.08, -91205.04, -83044.44, -115307.41, 0.000, 0.000, 0.000, 04:52:01.930
65, -7098.22, -7232.09, -7125.53, -7058.68, -91707.64, -100177.61, -95246.23, -131236.75, -6649.29, -6630.69, -6892.38, -6625.12, -85107.08, -91205.04, -83044.44, -115307.41, 0.000, 0.000, 0.000, 04:52:01.935
66, -7098.22, -7232.09, -7125.53, -7058.68, -91707.64, -100177.61, -95246.23, -131236.75, -6719.90, -6638.00, -6872.67, -6565.29, -85166.38, -91230.01, -83018.31, -115276.34, 0.008, 0.942, 0.328, 04:52:01.938
67, -7063.67, -7339.78, -7127.64, -7114.94, -91642.17, -100172.06, -95248.71, -131311.98, -6719.90, -6638.00, -6872.67, -6565.29, -85166.38, -91230.01, -83018.31, -115276.34, 0.000, 0.000, 0.000, 04:52:01.942
68, -7063.67, -7339.78, -7127.64, -7114.94, -91642.17, -100172.06, -95248.71, -131311.98, -6642.07, -6630.11, -6901.23, -6639.76, -85102.23, -91206.54, -83057.29, -115319.09, 0.000, 0.000, 0.000, 04:52:01.946
69, -7096.92, -7242.97, -7129.29, -7067.87, -91704.17, -100180.91, -95251.04, -131251.98, -6642.07, -6630.11, -6901.23, -6639.76, -85102.23, -91206.54, -83057.29, -115319.09, 0.000, 0.000, 0.000, 04:52:01.949
70, -7096.92, -7242.97, -7129.29, -7067.87, -91704.17, -100180.91, -95251.04, -131251.98, -6732.12, -6634.51, -6869.03, -6554.43, -85176.88, -91235.03, -83017.20, -115273.44, 0.000, 0.000, 0.000, 04:52:01.954
71, -7067.17, -7317.49, -7127.14, -7104.86, -91652.07, -100172.73, -95249.25, -131303.13, -6732.12, -6634.51, -6869.03, -6554.43, -85176.88, -91235.03, -83017.20, -115273.44, 0.000, 0.000, 0.000, 04:52:01.957
72, -7067.17, -7317.49, -7127.14, -7104.86, -91652.07, -100172.73, -95249.25, -131303.13, -6631.96, -6623.31, -6901.01, -6642.60, -85094.50, -91201.64, -83059.91, -115321.84, 0.000, 0.000, 0.000, 04:52:01.962
73, -7086.15, -7246.55, -7127.26, -7070.68, -91693.13, -100177.68, -95250.19, -131261.58, -6631.96, -6623.31, -6901.01, -6642.60, -85094.50, -91201.64, -83059.91, -115321.84, 0.000, 0.000, 0.000, 04:52:01.967
74, -7086.15, -7246.55, -7127.26, -7070.68, -91693.13, -100177.68, -95250.19, -131261.58, -6739.88, -6630.33, -6865.18, -6542.82, -85183.92, -91236.45, -83014.73, -115269.82, 0.000, 0.000, 0.000, 04:52:01.969
75, -7072.25, -7292.19, -7129.13, -7095.05, -91667.25, -100176.29, -95252.63, -131293.30, -6739.88, -6630.33, -6865.18, -6542.82, -85183.92, -91236.45, -83014.73, -115269.82, 0.004, 0.952, 0.326, 04:52:01.974
76, -7072.25, -7292.19, -7129.13, -7095.05, -91667.25, -100176.29, -95252.63, -131293.30, -6630.76, -6621.12, -6902.78, -6643.65, -85094.20, -91201.55, -83064.09, -115325.34, 0.000, 0.000, 0.000, 04:52:01.978
77, -7076.85, -7251.44, -7125.67, -7074.71, -91683.41, -100175.62, -95250.03, -131273.22, -6630.76, -6621.12, -6902.78, -6643.65, -85094.20, -91201.55, -83064.09, -115325.34, 0.000, 0.000, 0.000, 04:52:01.981
78, -7076.85, -7251.44, -7125.67, -7074.71, -91683.41, -100175.62, -95250.03, -131273.22, -6741.98, -6622.33, -6858.59, -6530.78, -85185.78, -91234.37, -83011.13, -115264.19, 0.000, 0.000, 0.000, 04:52:01.986
79, -7074.60, -7258.48, -7124.82, -7077.70, -91678.59, -100174.13, -95249.56, -131277.17, -6741.98, -6622.33, -6858.59, -6530.78, -85185.78, -91234.37, -83011.13, -115264.19, 0.000, 0.000, 0.000, 04:52:01.989
80, -7074.60, -7258.48, -7124.82, -7077.70, -91678.59, -100174.13, -95249.56, -131277.17, -6629.44, -6611.96, -6897.44, -6634.51, -85092.93, -91198.29, -83061.27, -115320.67, 0.000, 0.000, 0.000, 04:52:01.994
81, -7064.69, -7255.24, -7124.46, -7078.22, -91673.95, -100173.41, -95249.36, -131285.05, -6629.44, -6611.96, -6897.44, -6634.51, -85092.93, -91198.29, -83061.27, -115320.67, 0.000, 0.000, 0.000, 04:52:01.999
82, -7064.69, -7255.24, -7124.46, -7078.22, -91673.95, -100173.41, -95249.36, -131285.05, -6744.28, -6614.82, -6857.16, -6524.56, -85187.62, -91234.61, -83012.09, -115262.94, 0.000, 0.000, 0.000, 04:52:02.001
83, -7075.11, -7223.15, -7122.18, -7060.67, -91692.13, -100173.27, -95247.91, -131261.31, -6744.28, -6614.82, -6857.16, -6524.56, -85187.62, -91234.61, -83012.09, -115262.94, 0.000, 0.000, 0.000, 04:52:02.006
84, -7075.11, -7223.15, -7122.18, -7060.67, -91692.13, -100173.27, -95247.91, -131261.31, -6635.14, -6603.73, -6892.25, -6621.84, -85098.19, -91198.34, -83057.85, -115314.95, 0.000, 0.000, 0.000, 04:52:02.013
83, -7075.11, -7223.15, -7122.18, -7060.67, -91692.13, -100173.27, -95247.91, -131261.31, -6635.14, -6603.73, -6892.25, -6621.84, -85098.19, -91198.34, -83057.85, -115314.95, 0.000, 0.000, 0.000, 04:52:02.017
85, -7055.31, -7257.37, -7123.75, -7081.05, -91666.76, -100171.80, -95249.92, -131294.67, -6635.14, -6603.73, -6892.25, -6621.84, -85098.19, -91198.34, -83057.85, -115314.95, 0.006, 0.946, 0.314, 04:52:02.021
86, -7055.31, -7257.37, -7123.75, -7081.05, -91666.76, -100171.80, -95249.92, -131294.67, -6743.77, -6607.71, -6856.22, -6520.58, -85188.27, -91233.70, -83013.82, -115263.34, 0.000, 0.000, 0.000, 04:52:02.023
87, -7079.02, -7191.70, -7123.10, -7046.68, -91709.25, -100175.66, -95250.16, -131248.08, -6743.77, -6607.71, -6856.22, -6520.58, -85188.27, -91233.70, -83013.82, -115263.34, 0.000, 0.000, 0.000, 04:52:02.027
88, -7079.02, -7191.70, -7123.10, -7046.68, -91709.25, -100175.66, -95250.16, -131248.08, -6647.10, -6600.09, -6888.09, -6608.29, -85108.51, -91201.46, -83054.59, -115309.78, 0.000, 0.000, 0.000, 04:52:02.030
89, -7046.03, -7259.33, -7122.58, -7083.27, -91659.00, -100169.90, -95250.08, -131303.13, -6647.10, -6600.09, -6888.09, -6608.29, -85108.51, -91201.46, -83054.59, -115309.78, 0.000, 0.000, 0.000, 04:52:02.034
90, -7046.03, -7259.33, -7122.58, -7083.27, -91659.00, -100169.90, -95250.08, -131303.13, -6738.09, -6602.33, -6856.67, -6521.30, -85184.04, -91230.50, -83017.21, -115265.75, 0.000, 0.000, 0.000, 04:52:02.036
91, -7085.19, -7166.91, -7125.00, -7036.75, -91724.78, -100179.11, -95253.50, -131239.25, -6738.09, -6602.33, -6856.67, -6521.30, -85184.04, -91230.50, -83017.21, -115265.75, 0.000, 0.000, 0.000, 04:52:02.041
92, -7085.19, -7166.91, -7125.00, -7036.75, -91724.78, -100179.11, -95253.50, -131239.25, -6663.57, -6601.21, -6886.75, -6597.59, -85123.80, -91208.84, -83054.36, -115307.48, 0.000, 0.000, 0.000, 04:52:02.043
93, -7042.39, -7265.68, -7123.59, -7088.16, -91654.98, -100170.41, -95252.27, -131313.05, -6663.57, -6601.21, -6886.75, -6597.59, -85123.80, -91208.84, -83054.36, -115307.48, 0.000, 0.000, 0.000, 04:52:02.048
94, -7042.39, -7265.68, -7123.59, -7088.16, -91654.98, -100170.41, -95252.27, -131313.05, -6727.79, -6596.49, -6857.94, -6526.62, -85175.95, -91226.27, -83021.95, -115269.44, 0.000, 0.000, 0.000, 04:52:02.050
95, -7087.42, -7146.01, -7123.08, -7026.61, -91733.01, -100178.28, -95252.41, -131228.88, -6727.79, -6596.49, -6857.94, -6526.62, -85175.95, -91226.27, -83021.95, -115269.44, 0.004, 0.938, 0.316, 04:52:02.054
96, -7087.42, -7146.01, -7123.08, -7026.61, -91733.01, -100178.28, -95252.41, -131228.88, -6675.88, -6596.47, -6879.84, -6581.67, -85134.22, -91211.72, -83048.15, -115299.15, 0.000, 0.000, 0.000, 04:52:02.058
97, -7040.82, -7271.51, -7125.47, -7093.33, -91652.66, -100171.59, -95254.95, -131320.55, -6675.88, -6596.47, -6879.84, -6581.67, -85134.22, -91211.72, -83048.15, -115299.15, 0.000, 0.000, 0.000, 04:52:02.061
98, -7040.82, -7271.51, -7125.47, -7093.33, -91652.66, -100171.59, -95254.95, -131320.55, -6719.83, -6596.83, -6866.79, -6542.04, -85171.30, -91226.92, -83033.20, -115280.77, 0.000, 0.000, 0.000, 04:52:02.066
99, -7089.97, -7134.50, -7124.19, -7022.34, -91740.05, -100179.73, -95254.21, -131224.11, -6719.83, -6596.83, -6866.79, -6542.04, -85171.30, -91226.92, -83033.20, -115280.77, 0.000, 0.000, 0.000, 04:52:02.069
100, -7089.97, -7134.50, -7124.19, -7022.34, -91740.05, -100179.73, -95254.21, -131224.11, -6690.39, -6595.15, -6874.59, -6567.08, -85147.16, -91216.10, -83042.12, -115291.77, 0.000, 0.000, 0.000, 04:52:02.074
101, -7038.41, -7272.36, -7124.95, -7093.95, -91650.42, -100170.61, -95254.98, -131322.22, -6690.39, -6595.15, -6874.59, -6567.08, -85147.16, -91216.10, -83042.12, -115291.77, 0.000, 0.000, 0.000, 04:52:02.078
102, -7038.41, -7272.36, -7124.95, -7093.95, -91650.42, -100170.61, -95254.98, -131322.22, -6704.94, -6594.26, -6870.77, -6554.02, -85159.49, -91221.42, -83039.01, -115287.14, 0.000, 0.000, 0.000, 04:52:02.081
103, -7090.84, -7130.92, -7125.60, -7021.76, -91744.12, -100181.55, -95256.47, -131224.56, -6704.94, -6594.26, -6870.77, -6554.02, -85159.49, -91221.42, -83039.01, -115287.14, 0.000, 0.000, 0.000, 04:52:02.086
104, -7090.84, -7130.92, -7125.60, -7021.76, -91744.12, -100181.55, -95256.47, -131224.56, -6706.89, -6597.45, -6871.28, -6554.18, -85161.84, -91222.16, -83037.35, -115285.94, 0.000, 0.000, 0.000, 04:52:02.090
105, -7037.60, -7271.04, -7124.95, -7093.26, -91651.96, -100170.70, -95255.48, -131321.09, -6706.89, -6597.45, -6871.28, -6554.18, -85161.84, -91222.16, -83037.35, -115285.94, -0.002, 0.940, 0.334, 04:52:02.094
106, -7037.60, -7271.04, -7124.95, -7093.26, -91651.96, -100170.70, -95255.48, -131321.09, -6691.06, -6594.50, -6878.30, -6569.58, -85148.79, -91217.78, -83047.32, -115296.04, 0.000, 0.000, 0.000, 04:52:02.098
107, -7090.42, -7134.23, -7127.03, -7024.64, -91743.94, -100182.82, -95258.13, -131228.08, -6691.06, -6594.50, -6878.30, -6569.58, -85148.79, -91217.78, -83047.32, -115296.04, 0.000, 0.000, 0.000, 04:52:02.100
108, -7090.42, -7134.23, -7127.03, -7024.64, -91743.94, -100182.82, -95258.13, -131228.08, -6723.67, -6599.55, -6868.58, -6542.89, -85176.30, -91229.13, -83033.84, -115280.86, 0.000, 0.000, 0.000, 04:52:02.105
109, -7044.49, -7268.14, -7127.99, -7093.77, -91659.09, -100174.05, -95258.82, -131319.36, -6723.67, -6599.55, -6868.58, -6542.89, -85176.30, -91229.13, -83033.84, -115280.86, 0.000, 0.000, 0.000, 04:52:02.109
110, -7044.49, -7268.14, -7127.99, -7093.77, -91659.09, -100174.05, -95258.82, -131319.36, -6679.53, -6595.55, -6885.99, -6586.52, -85140.43, -91216.35, -83057.09, -115306.34, 0.000, 0.000, 0.000, 04:52:02.113
111, -7087.78, -7140.58, -7126.88, -7028.37, -91739.02, -100182.15, -95258.23, -131232.58, -6679.53, -6595.55, -6885.99, -6586.52, -85140.43, -91216.35, -83057.09, -115306.34, 0.000, 0.000, 0.000, 04:52:02.118
112, -7087.78, -7140.58, -7126.88, -7028.37, -91739.02, -100182.15, -95258.23, -131232.58, -6734.56, -6596.98, -6861.34, -6528.39, -85185.53, -91231.16, -83025.82, -115271.98, 0.000, 0.000, 0.000, 04:52:02.122
113, -7045.47, -7255.87, -7124.86, -7085.82, -91663.05, -100171.75, -95256.36, -131308.77, -6734.56, -6596.98, -6861.34, -6528.39, -85185.53, -91231.16, -83025.82, -115271.98, 0.000, 0.000, 0.000, 04:52:02.125
114, -7045.47, -7255.87, -7124.86, -7085.82, -91663.05, -100171.75, -95256.36, -131308.77, -6665.25, -6593.32, -6889.37, -6597.88, -85128.98, -91210.96, -83061.16, -115311.57, 0.000, 0.000, 0.000, 04:52:02.129
115, -7083.45, -7152.40, -7127.01, -7034.97, -91731.89, -100181.48, -95258.91, -131240.98, -6665.25, -6593.32, -6889.37, -6597.88, -85128.98, -91210.96, -83061.16, -115311.57, 0.000, 0.938, 0.318, 04:52:02.132
116, -7083.45, -7152.40, -7127.01, -7034.97, -91731.89, -100181.48, -95258.91, -131240.98, -6745.06, -6597.18, -6857.94, -6518.28, -85194.61, -91234.34, -83021.20, -115266.71, 0.000, 0.000, 0.000, 04:52:02.137
117, -7049.38, -7241.88, -7123.77, -7078.53, -91670.70, -100171.66, -95255.71, -131298.80, -6745.06, -6597.18, -6857.94, -6518.28, -85194.61, -91234.34, -83021.20, -115266.71, 0.000, 0.000, 0.000, 04:52:02.141
118, -7049.38, -7241.88, -7123.77, -7078.53, -91670.70, -100171.66, -95255.71, -131298.80, -6651.88, -6590.97, -6891.60, -6606.77, -85118.32, -91205.44, -83064.47, -115315.33, 0.000, 0.000, 0.000, 04:52:02.145
119, -7072.87, -7163.49, -7122.96, -7039.30, -91717.59, -100176.45, -95255.27, -131248.52, -6651.88, -6590.97, -6891.60, -6606.77, -85118.32, -91205.44, -83064.47, -115315.33, 0.000, 0.000, 0.000, 04:52:02.150
120, -7072.87, -7163.49, -7122.96, -7039.30, -91717.59, -100176.45, -95255.27, -131248.52, -6748.66, -6593.72, -6852.69, -6509.34, -85197.25, -91233.60, -83016.34, -115260.68, 0.000, 0.000, 0.000, 04:52:02.154
121, -7050.92, -7223.48, -7119.75, -7067.73, -91676.13, -100168.83, -95251.91, -131284.38, -6748.66, -6593.72, -6852.69, -6509.34, -85197.25, -91233.60, -83016.34, -115260.68, 0.000, 0.000, 0.000, 04:52:02.157
122, -7050.92, -7223.48, -7119.75, -7067.73, -91676.13, -100168.83, -95251.91, -131284.38, -6639.52, -6586.28, -6891.51, -6612.43, -85107.69, -91199.38, -83065.31, -115316.65, 0.000, 0.000, 0.000, 04:52:02.161
123, -7066.41, -7183.20, -7123.46, -7050.37, -91705.18, -100175.64, -95255.91, -131262.89, -6639.52, -6586.28, -6891.51, -6612.43, -85107.69, -91199.38, -83065.31, -115316.65, 0.000, 0.000, 0.000, 04:52:02.164
124, -7066.41, -7183.20, -7123.46, -7050.37, -91705.18, -100175.64, -95255.91, -131262.89, -6753.51, -6596.54, -6855.77, -6512.23, -85202.90, -91238.37, -83020.01, -115264.61, 0.000, 0.000, 0.000, 04:52:02.169
125, -7061.81, -7212.37, -7123.59, -7064.38, -91689.87, -100174.01, -95256.27, -131278.03, -6753.51, -6596.54, -6855.77, -6512.23, -85202.90, -91238.37, -83020.01, -115264.61, 0.000, 0.934, 0.298, 04:52:02.174
126, -7061.81, -7212.37, -7123.59, -7064.38, -91689.87, -100174.01, -95256.27, -131278.03, -6636.77, -6588.94, -6895.56, -6620.79, -85106.70, -91200.79, -83070.19, -115322.62, 0.000, 0.000, 0.000, 04:52:02.177
127, -7059.46, -7204.53, -7123.57, -7061.65, -91691.79, -100174.68, -95256.45, -131277.56, -6636.77, -6588.94, -6895.56, -6620.79, -85106.70, -91200.79, -83070.19, -115322.62, 0.000, 0.000, 0.000, 04:52:02.181
128, -7059.46, -7204.53, -7123.57, -7061.65, -91691.79, -100174.68, -95256.45, -131277.56, -6750.03, -6595.08, -6855.12, -6513.45, -85200.09, -91236.48, -83019.80, -115265.04, 0.000, 0.000, 0.000, 04:52:02.185
129, -7066.66, -7195.70, -7122.38, -7055.53, -91699.37, -100174.46, -95255.58, -131266.16, -6750.03, -6595.08, -6855.12, -6513.45, -85200.09, -91236.48, -83019.80, -115265.04, 0.000, 0.000, 0.000, 04:52:02.189
130, -7066.66, -7195.70, -7122.38, -7055.53, -91699.37, -100174.46, -95255.58, -131266.16, -6635.32, -6589.20, -6895.27, -6621.46, -85106.09, -91200.03, -83069.61, -115322.50, 0.000, 0.000, 0.000, 04:52:02.193
131, -7050.05, -7223.66, -7121.40, -7070.80, -91676.23, -100171.35, -95254.39, -131289.89, -6635.32, -6589.20, -6895.27, -6621.46, -85106.09, -91200.03, -83069.61, -115322.50, 0.000, 0.000, 0.000, 04:52:02.196
132, -7050.05, -7223.66, -7121.40, -7070.80, -91676.23, -100171.35, -95254.39, -131289.89, -6739.70, -6591.15, -6854.18, -6516.34, -85191.37, -91231.10, -83019.59, -115265.33, 0.000, 0.000, 0.000, 04:52:02.203
133, -7068.72, -7177.66, -7118.70, -7044.84, -91705.70, -100172.31, -95252.00, -131251.70, -6739.70, -6591.15, -6854.18, -6516.34, -85191.37, -91231.10, -83019.59, -115265.33, 0.000, 0.000, 0.000, 04:52:02.206
134, -7068.72, -7177.66, -7118.70, -7044.84, -91705.70, -100172.31, -95252.00, -131251.70, -6636.41, -6588.22, -6892.92, -6618.17, -85106.59, -91199.79, -83067.15, -115319.98, 0.000, 0.942, 0.326, 04:52:02.209
135, -7043.41, -7246.39, -7121.62, -7082.62, -91663.20, -100170.34, -95254.64, -131303.80, -6636.41, -6588.22, -6892.92, -6618.17, -85106.59, -91199.79, -83067.15, -115319.98, 0.000, 0.000, 0.000, 04:52:02.213
136, -7043.41, -7246.39, -7121.62, -7082.62, -91663.20, -100170.34, -95254.64, -131303.80, -6732.21, -6593.67, -6861.63, -6530.53, -85186.14, -91231.34, -83028.08, -115274.55, 0.000, 0.000, 0.000, 04:52:02.217
137, -7074.06, -7168.07, -7120.82, -7040.93, -91715.77, -100175.27, -95254.23, -131244.19, -6732.21, -6593.67, -6861.63, -6530.53, -85186.14, -91231.34, -83028.08, -115274.55, 0.000, 0.000, 0.000, 04:52:02.221
138, -7074.06, -7168.07, -7120.82, -7040.93, -91715.77, -100175.27, -95254.23, -131244.19, -6641.82, -6589.47, -6891.51, -6614.53, -85111.66, -91201.80, -83064.58, -115317.81, 0.000, 0.000, 0.000, 04:52:02.225
139, -7036.26, -7266.15, -7120.68, -7091.98, -91649.99, -100167.93, -95253.86, -131314.34, -6641.82, -6589.47, -6891.51, -6614.53, -85111.66, -91201.80, -83064.58, -115317.81, 0.000, 0.000, 0.000, 04:52:02.229
140, -7036.26, -7266.15, -7120.68, -7091.98, -91649.99, -100167.93, -95253.86, -131314.34, -6716.68, -6592.62, -6865.27, -6544.01, -85173.42, -91225.85, -83033.24, -115281.17, 0.000, 0.000, 0.000, 04:52:02.234
141, -7080.05, -7160.18, -7119.66, -7036.26, -91720.63, -100174.86, -95253.25, -131235.61, -6716.68, -6592.62, -6865.27, -6544.01, -85173.42, -91225.85, -83033.24, -115281.17, 0.000, 0.000, 0.000, 04:52:02.236
142, -7080.05, -7160.18, -7119.66, -7036.26, -91720.63, -100174.86, -95253.25, -131235.61, -6647.90, -6589.81, -6886.97, -6606.57, -85116.63, -91202.71, -83059.33, -115312.16, 0.000, 0.000, 0.000, 04:52:02.241
143, -7029.24, -7278.80, -7115.72, -7095.74, -91635.48, -100161.96, -95248.85, -131318.08, -6647.90, -6589.81, -6886.97, -6606.57, -85116.63, -91202.71, -83059.33, -115312.16, 0.000, 0.000, 0.000, 04:52:02.245
144, -7029.24, -7278.80, -7115.72, -7095.74, -91635.48, -100161.96, -95248.85, -131318.08, -6695.31, -6587.93, -6866.68, -6555.50, -85155.43, -91215.97, -83035.77, -115285.00, 0.000, 0.944, 0.316, 04:52:02.249
145, -7078.33, -7152.83, -7116.44, -7030.70, -91720.58, -100171.66, -95249.67, -131227.56, -6695.31, -6587.93, -6866.68, -6555.50, -85155.43, -91215.97, -83035.77, -115285.00, 0.000, 0.000, 0.000, 04:52:02.253
146, -7078.33, -7152.83, -7116.44, -7030.70, -91720.58, -100171.66, -95249.67, -131227.56, -6657.71, -6590.57, -6883.49, -6596.92, -85124.52, -91205.33, -83054.05, -115306.30, 0.000, 0.000, 0.000, 04:52:02.256
147, -7026.99, -7291.70, -7117.22, -7102.65, -91630.08, -100162.41, -95249.79, -131323.95, -6657.71, -6590.57, -6883.49, -6596.92, -85124.52, -91205.33, -83054.05, -115306.30, 0.000, 0.000, 0.000, 04:52:02.262
148, -7026.99, -7291.70, -7117.22, -7102.65, -91630.08, -100162.41, -95249.79, -131323.95, -6680.71, -6589.81, -6875.71, -6574.99, -85143.49, -91212.93, -83045.73, -115296.42, 0.000, 0.000, 0.000, 04:52:02.266
149, -7078.28, -7153.50, -7117.31, -7031.21, -91721.38, -100172.22, -95250.44, -131226.44, -6680.71, -6589.81, -6875.71, -6574.99, -85143.49, -91212.93, -83045.73, -115296.42, 0.000, 0.000, 0.000, 04:52:02.269
150, -7078.28, -7153.50, -7117.31, -7031.21, -91721.38, -100172.22, -95250.44, -131226.44, -6670.56, -6592.54, -6880.36, -6587.01, -85135.49, -91209.98, -83049.00, -115301.00, 0.000, 0.000, 0.000, 04:52:02.274
151, -7027.12, -7300.53, -7119.66, -7107.52, -91630.08, -100164.11, -95252.29, -131327.42, -6670.56, -6592.54, -6880.36, -6587.01, -85135.49, -91209.98, -83049.00, -115301.00, 0.000, 0.000, 0.000, 04:52:02.278
152, -7027.12, -7300.53, -7119.66, -7107.52, -91630.08, -100164.11, -95252.29, -131327.42, -6668.67, -6594.77, -6887.22, -6596.94, -85134.57, -91212.48, -83057.78, -115309.88, 0.000, 0.000, 0.000, 04:52:02.283
153, -7080.67, -7162.64, -7121.96, -7037.94, -91724.25, -100176.73, -95255.17, -131232.14, -6668.67, -6594.77, -6887.22, -6596.94, -85134.57, -91212.48, -83057.78, -115309.88, 0.000, 0.000, 0.000, 04:52:02.287
154, -7080.67, -7162.64, -7121.96, -7037.94, -91724.25, -100176.73, -95255.17, -131232.14, -6688.18, -6598.32, -6879.42, -6578.61, -85150.76, -91218.18, -83046.80, -115298.12, 0.006, 0.942, 0.302, 04:52:02.290
155, -7030.96, -7301.06, -7120.82, -7107.92, -91633.86, -100165.85, -95253.86, -131326.17, -6688.18, -6598.32, -6879.42, -6578.61, -85150.76, -91218.18, -83046.80, -115298.12, 0.000, 0.000, 0.000, 04:52:02.294
156, -7030.96, -7301.06, -7120.82, -7107.92, -91633.86, -100165.85, -95253.86, -131326.17, -6654.09, -6595.96, -6893.32, -6612.83, -85122.95, -91208.70, -83065.34, -115318.50, 0.000, 0.000, 0.000, 04:52:02.298
157, -7080.32, -7170.04, -7122.85, -7042.21, -91721.43, -100177.68, -95256.29, -131237.70, -6654.09, -6595.96, -6893.32, -6612.83, -85122.95, -91208.70, -83065.34, -115318.50, 0.000, 0.000, 0.000, 04:52:02.301
158, -7080.32, -7170.04, -7122.85, -7042.21, -91721.43, -100177.68, -95256.29, -131237.70, -6704.34, -6601.43, -6875.80, -6567.03, -85164.28, -91224.66, -83042.31, -115292.84, 0.000, 0.000, 0.000, 04:52:02.305
159, -7036.82, -7294.63, -7122.45, -7105.22, -91641.68, -100168.67, -95255.87, -131321.41, -6704.34, -6601.43, -6875.80, -6567.03, -85164.28, -91224.66, -83042.31, -115292.84, 0.000, 0.000, 0.000, 04:52:02.309
160, -7036.82, -7294.63, -7122.45, -7105.22, -91641.68, -100168.67, -95255.87, -131321.41, -6642.60, -6596.89, -6898.20, -6626.04, -85113.41, -91205.98, -83072.05, -115326.10, 0.000, 0.000, 0.000, 04:52:02.314
161, -7077.55, -7178.71, -7122.16, -7046.59, -91715.20, -100177.07, -95256.31, -131243.63, -6642.60, -6596.89, -6898.20, -6626.04, -85113.41, -91205.98, -83072.05, -115326.10, 0.000, 0.000, 0.000, 04:52:02.317
162, -7077.55, -7178.71, -7122.16, -7046.59, -91715.20, -100177.07, -95256.31, -131243.63, -6716.83, -6601.81, -6870.03, -6553.93, -85174.91, -91228.40, -83036.05, -115285.89, 0.000, 0.000, 0.000, 04:52:02.320
163, -7040.44, -7278.89, -7119.10, -7095.43, -91647.70, -100166.73, -95253.19, -131307.58, -6716.83, -6601.81, -6870.03, -6553.93, -85174.91, -91228.40, -83036.05, -115285.89, 0.000, 0.000, 0.000, 04:52:02.326
164, -7040.44, -7278.89, -7119.10, -7095.43, -91647.70, -100166.73, -95253.19, -131307.58, -6626.67, -6592.11, -6896.43, -6631.23, -85100.11, -91197.48, -83071.28, -115326.66, 0.000, 0.938, 0.298, 04:52:02.329
165, -7067.58, -7186.87, -7116.57, -7048.09, -91700.94, -100170.39, -95250.93, -131247.14, -6626.67, -6592.11, -6896.43, -6631.23, -85100.11, -91197.48, -83071.28, -115326.66, 0.000, 0.000, 0.000, 04:52:02.333
166, -7067.58, -7186.87, -7116.57, -7048.09, -91700.94, -100170.39, -95250.93, -131247.14, -6722.91, -6599.24, -6863.06, -6541.33, -85179.39, -91227.86, -83028.13, -115277.55, 0.000, 0.000, 0.000, 04:52:02.338
167, -7044.98, -7262.08, -7116.57, -7085.37, -91655.52, -100165.27, -95250.73, -131293.61, -6722.91, -6599.24, -6863.06, -6541.33, -85179.39, -91227.86, -83028.13, -115277.55, 0.000, 0.000, 0.000, 04:52:02.341
168, -7044.98, -7262.08, -7116.57, -7085.37, -91655.52, -100165.27, -95250.73, -131293.61, -6618.37, -6593.00, -6899.38, -6639.27, -85093.11, -91194.80, -83074.13, -115330.33, 0.000, 0.000, 0.000, 04:52:02.345
169, -7063.60, -7205.87, -7116.93, -7057.83, -91690.85, -100170.08, -95251.55, -131258.73, -6618.37, -6593.00, -6899.38, -6639.27, -85093.11, -91194.80, -83074.13, -115330.33, 0.000, 0.000, 0.000, 04:52:02.348
170, -7063.60, -7205.87, -7116.93, -7057.83, -91690.85, -100170.08, -95251.55, -131258.73, -6728.50, -6601.05, -6861.56, -6537.33, -85184.17, -91230.36, -83026.20, -115275.43, 0.000, 0.000, 0.000, 04:52:02.352
171, -7053.52, -7247.55, -7115.36, -7076.85, -91665.95, -100165.95, -95250.16, -131280.55, -6728.50, -6601.05, -6861.56, -6537.33, -85184.17, -91230.36, -83026.20, -115275.43, 0.000, 0.000, 0.000, 04:52:02.358
172, -7053.52, -7247.55, -7115.36, -7076.85, -91665.95, -100165.95, -95250.16, -131280.55, -6611.56, -6592.58, -6899.31, -6643.25, -85086.98, -91191.74, -83074.23, -115330.98, 0.000, 0.000, 0.000, 04:52:02.361
173, -7054.86, -7224.64, -7113.82, -7065.34, -91675.07, -100165.67, -95248.38, -131267.25, -6611.56, -6592.58, -6899.31, -6643.25, -85086.98, -91191.74, -83074.23, -115330.98, 0.000, 0.000, 0.000, 04:52:02.365
174, -7054.86, -7224.64, -7113.82, -7065.34, -91675.07, -100165.67, -95248.38, -131267.25, -6727.65, -6600.72, -6860.38, -6536.54, -85182.88, -91229.34, -83024.70, -115274.24, -0.004, 0.940, 0.312, 04:52:02.369
175, -7059.42, -7233.23, -7115.32, -7068.72, -91676.64, -100167.02, -95249.97, -131267.30, -6727.65, -6600.72, -6860.38, -6536.54, -85182.88, -91229.34, -83024.70, -115274.24, 0.000, 0.000, 0.000, 04:52:02.373
176, -7059.42, -7233.23, -7115.32, -7068.72, -91676.64, -100167.02, -95249.97, -131267.30, -6612.36, -6597.01, -6902.35, -6648.35, -85088.23, -91193.73, -83076.24, -115333.84, 0.000, 0.000, 0.000, 04:52:02.376
177, -7051.62, -7251.51, -7116.75, -7079.89, -91664.48, -100167.28, -95251.20, -131283.13, -6612.36, -6597.01, -6902.35, -6648.35, -85088.23, -91193.73, -83076.24, -115333.84, 0.000, 0.000, 0.000, 04:52:02.381
178, -7051.62, -7251.51, -7116.75, -7079.89, -91664.48, -100167.28, -95251.20, -131283.13, -6725.68, -6605.21, -6864.76, -6544.93, -85181.78, -91230.79, -83028.93, -115279.43, 0.000, 0.000, 0.000, 04:52:02.386
179, -7070.01, -7222.03, -7116.55, -7063.17, -91688.26, -100169.70, -95251.24, -131255.81, -6725.68, -6605.21, -6864.76, -6544.93, -85181.78, -91230.79, -83028.93, -115279.43, 0.000, 0.000, 0.000, 04:52:02.389
180, -7070.01, -7222.03, -7116.55, -7063.17, -91688.26, -100169.70, -95251.24, -131255.81, -6616.52, -6602.64, -6904.16, -6650.72, -85091.97, -91196.81, -83076.67, -115335.11, 0.000, 0.000, 0.000, 04:52:02.393
181, -7049.07, -7278.91, -7118.63, -7094.04, -91652.81, -100168.00, -95253.12, -131298.61, -6616.52, -6602.64, -6904.16, -6650.72, -85091.97, -91196.81, -83076.67, -115335.11, 0.000, 0.000, 0.000, 04:52:02.396
182, -7049.07, -7278.91, -7118.63, -7094.04, -91652.81, -100168.00, -95253.12, -131298.61, -6717.15, -6608.70, -6869.56, -6556.53, -85174.94, -91229.24, -83033.45, -115285.51, 0.000, 0.000, 0.000, 04:52:02.400
183, -7075.51, -7211.86, -7115.41, -7056.51, -91695.68, -100169.95, -95250.21, -131244.13, -6717.15, -6608.70, -6869.56, -6556.53, -85174.94, -91229.24, -83033.45, -115285.51, 0.000, 0.000, 0.000, 04:52:02.405
184, -7075.51, -7211.86, -7115.41, -7056.51, -91695.68, -100169.95, -95250.21, -131244.13, -6618.80, -6604.25, -6900.81, -6646.40, -85093.11, -91196.52, -83071.41, -115330.70, 0.002, 0.938, 0.304, 04:52:02.408
185, -7041.63, -7300.88, -7115.03, -7102.31, -91636.34, -100163.38, -95249.23, -131305.88, -6618.80, -6604.25, -6900.81, -6646.40, -85093.11, -91196.52, -83071.41, -115330.70, 0.000, 0.000, 0.000, 04:52:02.413
186, -7041.63, -7300.88, -7115.03, -7102.31, -91636.34, -100163.38, -95249.23, -131305.88, -6702.37, -6609.01, -6872.22, -6568.84, -85161.48, -91223.41, -83035.88, -115289.91, 0.000, 0.000, 0.000, 04:52:02.418
187, -7080.92, -7204.79, -7113.53, -7050.70, -91700.22, -100168.73, -95247.66, -131232.09, -6702.37, -6609.01, -6872.22, -6568.84, -85161.48, -91223.41, -83035.88, -115289.91, 0.000, 0.000, 0.000, 04:52:02.422
188, -7080.92, -7204.79, -7113.53, -7050.70, -91700.22, -100168.73, -95247.66, -131232.09, -6624.99, -6607.85, -6897.77, -6641.57, -85097.72, -91198.27, -83065.78, -115325.97, 0.000, 0.000, 0.000, 04:52:02.428
189, -7037.65, -7323.24, -7113.33, -7111.36, -91623.27, -100160.60, -95246.79, -131313.05, -6624.99, -6607.85, -6897.77, -6641.57, -85097.72, -91198.27, -83065.78, -115325.97, 0.000, 0.000, 0.000, 04:52:02.430
190, -7037.65, -7323.24, -7113.33, -7111.36, -91623.27, -100160.60, -95246.79, -131313.05, -6685.05, -6611.42, -6877.61, -6585.94, -85146.82, -91217.65, -83040.41, -115297.00, 0.000, 0.000, 0.000, 04:52:02.434
191, -7084.18, -7204.73, -7111.92, -7048.42, -91701.78, -100167.87, -95245.41, -131223.95, -6685.05, -6611.42, -6877.61, -6585.94, -85146.82, -91217.65, -83040.41, -115297.00, 0.000, 0.000, 0.000, 04:52:02.437
192, -7084.18, -7204.73, -7111.92, -7048.42, -91701.78, -100167.87, -95245.41, -131223.95, -6632.19, -6612.14, -6894.04, -6635.32, -85102.95, -91199.95, -83058.88, -115320.06, 0.000, 0.000, 0.000, 04:52:02.441
193, -7034.74, -7343.20, -7111.34, -7118.78, -91611.86, -100157.76, -95243.95, -131316.94, -6632.19, -6612.14, -6894.04, -6635.32, -85102.95, -91199.95, -83058.88, -115320.06, 0.010, 0.932, 0.296, 04:52:02.445
194, -7034.74, -7343.20, -7111.34, -7118.78, -91611.86, -100157.76, -95243.95, -131316.94, -6666.12, -6615.58, -6884.40, -6606.50, -85130.86, -91211.97, -83046.56, -115306.05, 0.000, 0.000, 0.000, 04:52:02.449
195, -7087.22, -7210.87, -7111.21, -7049.56, -91700.60, -100166.99, -95243.69, -131219.94, -6666.12, -6615.58, -6884.40, -6606.50, -85130.86, -91211.97, -83046.56, -115306.05, 0.000, 0.000, 0.000, 04:52:02.453
196, -7087.22, -7210.87, -7111.21, -7049.56, -91700.60, -100166.99, -95243.69, -131219.94, -6643.01, -6618.78, -6892.09, -6629.75, -85111.39, -91204.30, -83053.07, -115315.51, 0.000, 0.000, 0.000, 04:52:02.456
197, -7034.52, -7359.65, -7111.34, -7125.18, -91605.72, -100156.94, -95242.81, -131318.42, -6643.01, -6618.78, -6892.09, -6629.75, -85111.39, -91204.30, -83053.07, -115315.51, 0.000, 0.000, 0.000, 04:52:02.460
198, -7034.52, -7359.65, -7111.34, -7125.18, -91605.72, -100156.94, -95242.81, -131318.42, -6647.03, -6618.84, -6891.11, -6626.84, -85113.20, -91206.00, -83052.51, -115314.92, 0.000, 0.000, 0.000, 04:52:02.464
199, -7089.32, -7221.04, -7111.74, -7053.85, -91698.05, -100167.38, -95243.41, -131219.48, -6647.03, -6618.84, -6891.11, -6626.84, -85113.20, -91206.00, -83052.51, -115314.92, 0.000, 0.000, 0.000, 04:52:02.469
200, -7089.32, -7221.04, -7111.74, -7053.85, -91698.05, -100167.38, -95243.41, -131219.48, -6659.05, -6626.78, -6891.36, -6623.89, -85124.38, -91212.05, -83049.73, -115312.58, 0.000, 0.000, 0.000, 04:52:02.474
201, -7041.72, -7369.24, -7114.96, -7130.72, -91608.76, -100160.76, -95246.14, -131319.73, -6659.05, -6626.78, -6891.36, -6623.89, -85124.38, -91212.05, -83049.73, -115312.58, 0.000, 0.000, 0.000, 04:52:02.476
202, -7041.72, -7369.24, -7114.96, -7130.72, -91608.76, -100160.76, -95246.14, -131319.73, -6633.01, -6623.60, -6899.36, -6646.47, -85102.84, -91203.48, -83061.18, -115325.79, 0.000, 0.000, 0.000, 04:52:02.481
203, -7088.25, -7229.14, -7111.01, -7056.98, -91693.13, -100166.61, -95242.45, -131221.31, -6633.01, -6623.60, -6899.36, -6646.47, -85102.84, -91203.48, -83061.18, -115325.79, 0.008, 0.936, 0.314, 04:52:02.484
204, -7088.25, -7229.14, -7111.01, -7056.98, -91693.13, -100166.61, -95242.45, -131221.31, -6670.14, -6627.43, -6883.53, -6609.08, -85133.23, -91213.84, -83040.10, -115303.02, 0.000, 0.000, 0.000, 04:52:02.488
205, -7042.45, -7362.33, -7110.02, -7123.79, -91607.73, -100156.80, -95241.23, -131309.20, -6670.14, -6627.43, -6883.53, -6609.08, -85133.23, -91213.84, -83040.10, -115303.02, 0.000, 0.000, 0.000, 04:52:02.493
206, -7042.45, -7362.33, -7110.02, -7123.79, -91607.73, -100156.80, -95241.23, -131309.20, -6616.25, -6623.34, -6901.75, -6658.96, -85088.35, -91196.77, -83064.00, -115330.77, 0.000, 0.000, 0.000, 04:52:02.496
207, -7084.43, -7239.62, -7109.33, -7060.96, -91685.09, -100164.71, -95240.87, -131225.91, -6616.25, -6623.34, -6901.75, -6658.96, -85088.35, -91196.77, -83064.00, -115330.77, 0.000, 0.000, 0.000, 04:52:02.502
208, -7084.43, -7239.62, -7109.33, -7060.96, -91685.09, -100164.71, -95240.87, -131225.91, -6681.79, -6629.01, -6877.72, -6596.51, -85142.58, -91217.17, -83032.52, -115295.41, 0.000, 0.000, 0.000, 04:52:02.504
209, -7048.26, -7354.80, -7109.80, -7119.30, -91614.95, -100157.85, -95241.20, -131300.58, -6681.79, -6629.01, -6877.72, -6596.51, -85142.58, -91217.17, -83032.52, -115295.41, 0.000, 0.000, 0.000, 04:52:02.510
210, -7048.26, -7354.80, -7109.80, -7119.30, -91614.95, -100157.85, -95241.20, -131300.58, -6605.21, -6625.86, -6907.36, -6672.35, -85079.32, -91194.53, -83069.92, -115337.77, 0.000, 0.000, 0.000, 04:52:02.512
211, -7081.03, -7254.30, -7109.15, -7068.49, -91677.15, -100164.47, -95240.94, -131233.80, -6605.21, -6625.86, -6907.36, -6672.35, -85079.32, -91194.53, -83069.92, -115337.77, 0.000, 0.000, 0.000, 04:52:02.516
212, -7081.03, -7254.30, -7109.15, -7068.49, -91677.15, -100164.47, -95240.94, -131233.80, -6694.66, -6632.50, -6875.53, -6588.15, -85152.88, -91222.74, -83029.33, -115291.95, 0.000, 0.000, 0.000, 04:52:02.520
213, -7054.77, -7342.08, -7109.89, -7112.37, -91625.05, -100159.48, -95241.45, -131289.72, -6694.66, -6632.50, -6875.53, -6588.15, -85152.88, -91222.74, -83029.33, -115291.95, 0.004, 0.944, 0.332, 04:52:02.525
214, -7054.77, -7342.08, -7109.89, -7112.37, -91625.05, -100159.48, -95241.45, -131289.72, -6596.04, -6626.29, -6908.99, -6679.93, -85071.52, -91191.41, -83072.31, -115341.23, 0.000, 0.000, 0.000, 04:52:02.530
215, -7076.20, -7270.28, -7109.24, -7076.65, -91668.08, -100164.58, -95241.43, -131244.44, -6596.04, -6626.29, -6908.99, -6679.93, -85071.52, -91191.41, -83072.31, -115341.23, 0.000, 0.000, 0.000, 04:52:02.534
216, -7076.20, -7270.28, -7109.24, -7076.65, -91668.08, -100164.58, -95241.43, -131244.44, -6702.60, -6633.06, -6871.17, -6579.06, -85159.36, -91224.91, -83024.37, -115287.01, 0.000, 0.000, 0.000, 04:52:02.538
217, -7058.05, -7320.15, -7105.89, -7099.38, -91633.52, -100157.88, -95237.83, -131273.41, -6702.60, -6633.06, -6871.17, -6579.06, -85159.36, -91224.91, -83024.37, -115287.01, 0.000, 0.000, 0.000, 04:52:02.540
218, -7058.05, -7320.15, -7105.89, -7099.38, -91633.52, -100157.88, -95237.83, -131273.41, -6590.64, -6625.73, -6908.14, -6681.83, -85066.80, -91188.77, -83071.22, -115341.55, 0.000, 0.000, 0.000, 04:52:02.545
219, -7069.95, -7285.35, -7108.77, -7084.39, -91657.98, -100163.86, -95241.05, -131256.17, -6590.64, -6625.73, -6908.14, -6681.83, -85066.80, -91188.77, -83071.22, -115341.55, 0.000, 0.000, 0.000, 04:52:02.548
220, -7069.95, -7285.35, -7108.77, -7084.39, -91657.98, -100163.86, -95241.05, -131256.17, -6709.43, -6634.89, -6870.23, -6574.88, -85165.20, -91228.28, -83023.16, -115285.98, 0.000, 0.000, 0.000, 04:52:02.553
221, -7068.45, -7301.71, -7108.59, -7091.54, -91650.38, -100163.13, -95240.96, -131262.94, -6709.43, -6634.89, -6870.23, -6574.88, -85165.20, -91228.28, -83023.16, -115285.98, 0.000, 0.000, 0.000, 04:52:02.557
222, -7068.45, -7301.71, -7108.59, -7091.54, -91650.38, -100163.13, -95240.96, -131262.94, -6593.29, -6628.30, -6909.30, -6682.81, -85069.44, -91191.49, -83072.83, -115343.47, 0.000, 0.000, 0.000, 04:52:02.559
223, -7063.98, -7300.64, -7108.48, -7092.57, -91647.83, -100163.73, -95241.18, -131268.44, -6593.29, -6628.30, -6909.30, -6682.81, -85069.44, -91191.49, -83072.83, -115343.47, 0.002, 0.926, 0.308, 04:52:02.565
224, -7063.98, -7300.64, -7108.48, -7092.57, -91647.83, -100163.73, -95241.18, -131268.44, -6711.29, -6634.96, -6869.76, -6573.45, -85166.54, -91229.83, -83023.85, -115286.59, 0.000, 0.000, 0.000, 04:52:02.568
225, -7077.30, -7279.18, -7109.08, -7081.14, -91665.59, -100166.26, -95242.14, -131250.27, -6711.29, -6634.96, -6869.76, -6573.45, -85166.54, -91229.83, -83023.85, -115286.59, 0.000, 0.000, 0.000, 04:52:02.573
226, -7077.30, -7279.18, -7109.08, -7081.14, -91665.59, -100166.26, -95242.14, -131250.27, -6598.91, -6628.72, -6907.00, -6677.52, -85074.16, -91193.80, -83070.95, -115341.41, 0.000, 0.000, 0.000, 04:52:02.577
227, -7056.58, -7312.26, -7106.78, -7098.56, -91636.72, -100161.85, -95240.18, -131278.39, -6598.91, -6628.72, -6907.00, -6677.52, -85074.16, -91193.80, -83070.95, -115341.41, 0.000, 0.000, 0.000, 04:52:02.580
228, -7056.58, -7312.26, -7106.78, -7098.56, -91636.72, -100161.85, -95240.18, -131278.39, -6705.23, -6630.47, -6866.46, -6571.57, -85161.26, -91225.78, -83021.91, -115285.11, 0.000, 0.000, 0.000, 04:52:02.584
229, -7078.60, -7252.47, -7105.06, -7066.10, -91674.98, -100164.18, -95238.79, -131233.34, -6705.23, -6630.47, -6866.46, -6571.57, -85161.26, -91225.78, -83021.91, -115285.11, 0.000, 0.000, 0.000, 04:52:02.587
230, -7078.60, -7252.47, -7105.06, -7066.10, -91674.98, -100164.18, -95238.79, -131233.34, -6605.81, -6626.98, -6901.97, -6666.77, -85079.48, -91194.69, -83065.18, -115335.35, 0.000, 0.000, 0.000, 04:52:02.593
231, -7048.80, -7324.78, -7106.11, -7105.10, -91626.70, -100160.60, -95239.82, -131288.28, -6605.81, -6626.98, -6901.97, -6666.77, -85079.48, -91194.69, -83065.18, -115335.35, 0.000, 0.000, 0.000, 04:52:02.597
232, -7048.80, -7324.78, -7106.11, -7105.10, -91626.70, -100160.60, -95239.82, -131288.28, -6698.82, -6629.19, -6868.20, -6576.46, -85155.74, -91223.66, -83025.15, -115288.93, 0.000, 0.000, 0.000, 04:52:02.600
233, -7083.33, -7231.08, -7104.66, -7055.73, -91687.14, -100165.83, -95239.10, -131221.09, -6698.82, -6629.19, -6868.20, -6576.46, -85155.74, -91223.66, -83025.15, -115288.93, -0.002, 0.922, 0.318, 04:52:02.606
234, -7083.33, -7231.08, -7104.66, -7055.73, -91687.14, -100165.83, -95239.10, -131221.09, -6615.56, -6624.59, -6894.17, -6651.57, -85087.16, -91196.21, -83057.65, -115327.04, 0.000, 0.000, 0.000, 04:52:02.609
235, -7039.95, -7329.96, -7101.57, -7105.89, -91616.06, -100156.22, -95235.98, -131292.08, -6615.56, -6624.59, -6894.17, -6651.57, -85087.16, -91196.21, -83057.65, -115327.04, 0.000, 0.000, 0.000, 04:52:02.612
236, -7039.95, -7329.96, -7101.57, -7105.89, -91616.06, -100156.22, -95235.98, -131292.08, -6687.42, -6623.94, -6866.81, -6579.35, -85145.39, -91217.80, -83026.22, -115289.76, 0.000, 0.000, 0.000, 04:52:02.616
237, -7083.63, -7208.71, -7100.34, -7042.79, -91693.70, -100163.59, -95235.62, -131207.17, -6687.42, -6623.94, -6866.81, -6579.35, -85145.39, -91217.80, -83026.22, -115289.76, 0.000, 0.000, 0.000, 04:52:02.621
238, -7083.63, -7208.71, -7100.34, -7042.79, -91693.70, -100163.59, -95235.62, -131207.17, -6628.10, -6621.19, -6885.01, -6632.97, -85096.28, -91197.93, -83048.75, -115316.45, 0.000, 0.000, 0.000, 04:52:02.624
239, -7036.28, -7334.26, -7100.21, -7108.06, -91610.79, -100155.34, -95235.59, -131297.11, -6628.10, -6621.19, -6885.01, -6632.97, -85096.28, -91197.93, -83048.75, -115316.45, 0.000, 0.000, 0.000, 04:52:02.628
240, -7036.28, -7334.26, -7100.21, -7108.06, -91610.79, -100155.34, -95235.59, -131297.11, -6677.09, -6623.22, -6870.48, -6589.94, -85137.14, -91215.39, -83032.64, -115296.64, 0.000, 0.000, 0.000, 04:52:02.633
241, -7090.62, -7197.75, -7101.46, -7038.83, -91702.23, -100166.77, -95237.85, -131203.14, -6677.09, -6623.22, -6870.48, -6589.94, -85137.14, -91215.39, -83032.64, -115296.64, 0.000, 0.000, 0.000, 04:52:02.636
242, -7090.62, -7197.75, -7101.46, -7038.83, -91702.23, -100166.77, -95237.85, -131203.14, -6647.05, -6625.03, -6881.19, -6620.47, -85112.83, -91206.55, -83045.02, -115312.06, 0.000, 0.000, 0.000, 04:52:02.641
243, -7039.84, -7339.33, -7101.71, -7111.92, -91611.05, -100157.70, -95237.98, -131301.73, -6647.05, -6625.03, -6881.19, -6620.47, -85112.83, -91206.55, -83045.02, -115312.06, -0.004, 0.936, 0.330, 04:52:02.643
244, -7039.84, -7339.33, -7101.71, -7111.92, -91611.05, -100157.70, -95237.98, -131301.73, -6663.86, -6623.25, -6875.11, -6602.82, -85126.44, -91211.77, -83038.59, -115304.20, 0.000, 0.000, 0.000, 04:52:02.647
245, -7091.81, -7193.91, -7100.99, -7036.93, -91704.51, -100167.23, -95238.08, -131201.70, -6663.86, -6623.25, -6875.11, -6602.82, -85126.44, -91211.77, -83038.59, -115304.20, 0.000, 0.000, 0.000, 04:52:02.653
246, -7091.81, -7193.91, -7100.99, -7036.93, -91704.51, -100167.23, -95238.08, -131201.70, -6662.76, -6626.76, -6876.80, -6606.53, -85125.97, -91212.08, -83038.65, -115304.87, 0.000, 0.000, 0.000, 04:52:02.656
247, -7041.56, -7341.94, -7103.12, -7113.87, -91612.48, -100159.52, -95239.69, -131303.16, -6662.76, -6626.76, -6876.80, -6606.53, -85125.97, -91212.08, -83038.65, -115304.87, 0.000, 0.000, 0.000, 04:52:02.660
248, -7041.56, -7341.94, -7103.12, -7113.87, -91612.48, -100159.52, -95239.69, -131303.16, -6650.43, -6625.82, -6883.60, -6620.99, -85115.82, -91209.69, -83048.24, -115315.15, 0.000, 0.000, 0.000, 04:52:02.664
249, -7090.40, -7198.74, -7101.33, -7039.59, -91701.94, -100167.53, -95238.43, -131204.83, -6650.43, -6625.82, -6883.60, -6620.99, -85115.82, -91209.69, -83048.24, -115315.15, 0.000, 0.000, 0.000, 04:52:02.667
250, -7090.40, -7198.74, -7101.33, -7039.59, -91701.94, -100167.53, -95238.43, -131204.83, -6673.45, -6625.28, -6868.98, -6591.13, -85133.68, -91213.55, -83029.71, -115295.16, 0.000, 0.000, 0.000, 04:52:02.672
251, -7038.70, -7334.68, -7096.77, -7106.69, -91608.35, -100153.70, -95233.59, -131293.61, -6673.45, -6625.28, -6868.98, -6591.13, -85133.68, -91213.55, -83029.71, -115295.16, 0.000, 0.000, 0.000, 04:52:02.675
252, -7038.70, -7334.68, -7096.77, -7106.69, -91608.35, -100153.70, -95233.59, -131293.61, -6627.47, -6619.98, -6882.35, -6631.00, -85095.34, -91198.09, -83048.28, -115316.78, 0.000, 0.000, 0.000, 04:52:02.680
253, -7086.89, -7207.12, -7098.40, -7042.34, -91692.64, -100164.27, -95235.80, -131207.94, -6627.47, -6619.98, -6882.35, -6631.00, -85095.34, -91198.09, -83048.28, -115316.78, 0.002, 0.924, 0.308, 04:52:02.685
254, -7086.89, -7207.12, -7098.40, -7042.34, -91692.64, -100164.27, -95235.80, -131207.94, -6688.65, -6630.82, -6867.51, -6584.15, -85147.07, -91220.70, -83026.91, -115292.53, 0.000, 0.000, 0.000, 04:52:02.688
255, -7047.33, -7335.86, -7101.75, -7108.50, -91617.61, -100158.77, -95238.19, -131291.55, -6688.65, -6630.82, -6867.51, -6584.15, -85147.07, -91220.70, -83026.91, -115292.53, 0.000, 0.000, 0.000, 04:52:02.692
0, -7047.33, -7335.86, -7101.75, -7108.50, -91617.61, -100158.77, -95238.19, -131291.55, -6616.41, -6625.82, -6892.16, -6651.05, -85087.03, -91197.46, -83058.12, -115328.52, 0.000, 0.000, 0.000, 04:52:02.695
1, -7082.49, -7226.99, -7100.21, -7052.15, -91684.55, -100164.71, -95236.87, -131217.47, -6616.41, -6625.82, -6892.16, -6651.05, -85087.03, -91197.46, -83058.12, -115328.52, 0.000, 0.000, 0.000, 04:52:02.700
2, -7082.49, -7226.99, -7100.21, -7052.15, -91684.55, -100164.71, -95236.87, -131217.47, -6698.73, -6634.02, -6865.09, -6576.78, -85155.38, -91224.46, -83022.65, -115288.13, 0.000, 0.000, 0.000, 04:52:02.703
3, -7052.69, -7328.49, -7101.40, -7103.29, -91624.24, -100158.97, -95237.59, -131282.34, -6698.73, -6634.02, -6865.09, -6576.78, -85155.38, -91224.46, -83022.65, -115288.13, 0.000, 0.000, 0.000, 04:52:02.708
4, -7052.69, -7328.49, -7101.40, -7103.29, -91624.24, -100158.97, -95237.59, -131282.34, -6603.20, -6626.98, -6896.16, -6663.14, -85075.85, -91193.08, -83061.70, -115333.34, 0.000, 0.000, 0.000, 04:52:02.713
5, -7075.33, -7244.45, -7098.35, -7059.51, -91671.59, -100161.63, -95234.52, -131225.81, -6603.20, -6626.98, -6896.16, -6663.14, -85075.85, -91193.08, -83061.70, -115333.34, 0.000, 0.000, 0.000, 04:52:02.716
6, -7075.33, -7244.45, -7098.35, -7059.51, -91671.59, -100161.63, -95234.52, -131225.81, -6702.64, -6632.39, -6859.57, -6567.05, -85157.13, -91223.27, -83015.18, -115280.62, 0.002, 0.924, 0.296, 04:52:02.720
7, -7054.59, -7311.46, -7095.54, -7090.89, -91628.02, -100154.54, -95231.62, -131264.30, -6702.64, -6632.39, -6859.57, -6567.05, -85157.13, -91223.27, -83015.18, -115280.62, 0.000, 0.000, 0.000, 04:52:02.723
8, -7054.59, -7311.46, -7095.54, -7090.89, -91628.02, -100154.54, -95231.62, -131264.30, -6592.94, -6626.78, -6896.21, -6669.83, -85066.49, -91188.54, -83062.08, -115335.22, 0.000, 0.000, 0.000, 04:52:02.728
9, -7073.63, -7266.84, -7098.33, -7070.12, -91659.96, -100160.94, -95234.90, -131237.28, -6592.94, -6626.78, -6896.21, -6669.83, -85066.49, -91188.54, -83062.08, -115335.22, 0.000, 0.000, 0.000, 04:52:02.734
10, -7073.63, -7266.84, -7098.33, -7070.12, -91659.96, -100160.94, -95234.90, -131237.28, -6709.59, -6637.71, -6860.09, -6567.08, -85163.54, -91227.95, -83015.85, -115281.80, 0.000, 0.000, 0.000, 04:52:02.736
11, -7068.58, -7302.18, -7099.79, -7087.20, -91643.78, -100160.20, -95236.04, -131254.53, -6709.59, -6637.71, -6860.09, -6567.08, -85163.54, -91227.95, -83015.85, -115281.80, 0.000, 0.000, 0.000, 04:52:02.740
12, -7068.58, -7302.18, -7099.79, -7087.20, -91643.78, -100160.20, -95236.04, -131254.53, -6594.75, -6634.27, -6902.42, -6679.15, -85068.84, -91192.68, -83067.53, -115341.70, 0.000, 0.000, 0.000, 04:52:02.745
13, -7069.07, -7291.94, -7101.08, -7083.45, -91650.15, -100162.45, -95237.13, -131251.39, -6594.75, -6634.27, -6902.42, -6679.15, -85068.84, -91192.68, -83067.53, -115341.70, 0.000, 0.000, 0.000, 04:52:02.747
14, -7069.07, -7291.94, -7101.08, -7083.45, -91650.15, -100162.45, -95237.13, -131251.39, -6712.18, -6641.60, -6862.90, -6569.62, -85165.46, -91230.09, -83017.35, -115283.55, 0.000, 0.000, 0.000, 04:52:02.752
15, -7076.47, -7287.00, -7100.88, -7079.24, -91656.74, -100162.43, -95236.80, -131241.86, -6712.18, -6641.60, -6862.90, -6569.62, -85165.46, -91230.09, -83017.35, -115283.55, 0.000, 0.000, 0.000, 04:52:02.755
16, -7076.47, -7287.00, -7100.88, -7079.24, -91656.74, -100162.43, -95236.80, -131241.86, -6596.42, -6636.95, -6902.98, -6679.22, -85069.91, -91193.41, -83066.66, -115340.90, 0.000, 0.930, 0.304, 04:52:02.760
17, -7064.07, -7313.38, -7101.04, -7093.75, -91637.61, -100160.96, -95236.69, -131263.16, -6596.42, -6636.95, -6902.98, -6679.22, -85069.91, -91193.41, -83066.66, -115340.90, 0.000, 0.000, 0.000, 04:52:02.764
18, -7064.07, -7313.38, -7101.04, -7093.75, -91637.61, -100160.96, -95236.69, -131263.16, -6707.67, -6642.00, -6862.97, -6573.02, -85161.28, -91228.33, -83017.62, -115284.55, 0.000, 0.000, 0.000, 04:52:02.768
19, -7082.80, -7267.45, -7097.39, -7066.88, -91665.33, -100160.53, -95233.41, -131224.58, -6707.67, -6642.00, -6862.97, -6573.02, -85161.28, -91228.33, -83017.62, -115284.55, 0.000, 0.000, 0.000, 04:52:02.772
20, -7082.80, -7267.45, -7097.39, -7066.88, -91665.33, -100160.53, -95233.41, -131224.58, -6599.93, -6636.95, -6898.33, -6672.40, -85071.79, -91193.17, -83060.63, -115335.63, 0.000, 0.000, 0.000, 04:52:02.775
21, -7059.02, -7331.73, -7099.45, -7101.57, -91625.01, -100158.45, -95235.15, -131271.52, -6599.93, -6636.95, -6898.33, -6672.40, -85071.79, -91193.17, -83060.63, -115335.63, 0.000, 0.000, 0.000, 04:52:02.780
22, -7059.02, -7331.73, -7099.45, -7101.57, -91625.01, -100158.45, -95235.15, -131271.52, -6701.10, -6643.01, -6865.16, -6579.57, -85155.31, -91226.16, -83019.23, -115287.73, 0.000, 0.000, 0.000, 04:52:02.783
23, -7090.46, -7252.92, -7098.40, -7059.13, -91677.63, -100162.84, -95234.32, -131211.84, -6701.10, -6643.01, -6865.16, -6579.57, -85155.31, -91226.16, -83019.23, -115287.73, 0.000, 0.000, 0.000, 04:52:02.788
24, -7090.46, -7252.92, -7098.40, -7059.13, -91677.63, -100162.84, -95234.32, -131211.84, -6608.76, -6639.07, -6894.17, -6663.50, -85079.05, -91195.54, -83054.68, -115330.13, 0.000, 0.000, 0.000, 04:52:02.792
25, -7052.73, -7346.35, -7096.61, -7106.87, -91612.63, -100154.63, -95232.17, -131277.80, -6608.76, -6639.07, -6894.17, -6663.50, -85079.05, -91195.54, -83054.68, -115330.13, 0.000, 0.000, 0.000, 04:52:02.796
26, -7052.73, -7346.35, -7096.61, -7106.87, -91612.63, -100154.63, -95232.17, -131277.80, -6691.13, -6644.23, -6868.18, -6589.34, -85147.05, -91223.03, -83022.89, -115292.59, 0.000, 0.938, 0.318, 04:52:02.800
27, -7098.58, -7240.91, -7098.65, -7052.71, -91687.21, -100164.31, -95234.81, -131202.30, -6691.13, -6644.23, -6868.18, -6589.34, -85147.05, -91223.03, -83022.89, -115292.59, 0.000, 0.000, 0.000, 04:52:02.802
28, -7098.58, -7240.91, -7098.65, -7052.71, -91687.21, -100164.31, -95234.81, -131202.30, -6622.04, -6642.58, -6890.86, -6653.76, -85089.71, -91200.37, -83049.67, -115324.72, 0.000, 0.000, 0.000, 04:52:02.808
29, -7049.45, -7359.20, -7095.74, -7112.10, -91604.58, -100152.98, -95231.23, -131284.17, -6622.04, -6642.58, -6890.86, -6653.76, -85089.71, -91200.37, -83049.67, -115324.72, 0.000, 0.000, 0.000, 04:52:02.812
30, -7049.45, -7359.20, -7095.74, -7112.10, -91604.58, -100152.98, -95231.23, -131284.17, -6675.75, -6642.31, -6869.79, -6598.88, -85133.73, -91216.55, -83024.93, -115295.86, 0.000, 0.000, 0.000, 04:52:02.829
31, -7100.63, -7230.57, -7095.87, -7045.16, -91690.65, -100162.12, -95231.70, -131191.81, -6675.75, -6642.31, -6869.79, -6598.88, -85133.73, -91216.55, -83024.93, -115295.86, 0.000, 0.000, 0.000, 04:52:02.830
32, -7100.63, -7230.57, -7095.87, -7045.16, -91690.65, -100162.12, -95231.70, -131191.81, -6634.42, -6643.30, -6884.56, -6639.94, -85099.16, -91203.38, -83041.66, -115315.98, 0.000, 0.000, 0.000, 04:52:02.830
33, -7047.39, -7367.58, -7094.20, -7114.72, -91598.41, -100150.74, -95229.13, -131285.30, -6634.42, -6643.30, -6884.56, -6639.94, -85099.16, -91203.38, -83041.66, -115315.98, 0.000, 0.000, 0.000, 04:52:02.830
34, -7047.39, -7367.58, -7094.20, -7114.72, -91598.41, -100150.74, -95229.13, -131285.30, -6662.12, -6643.07, -6875.28, -6613.43, -85121.56, -91212.34, -83030.78, -115303.23, 0.000, 0.000, 0.000, 04:52:02.831
35, -7103.59, -7227.93, -7096.72, -7043.79, -91694.12, -100163.05, -95232.47, -131188.44, -6662.12, -6643.07, -6875.28, -6613.43, -85121.56, -91212.34, -83030.78, -115303.23, 0.000, 0.000, 0.000, 04:52:02.838
36, -7103.59, -7227.93, -7096.72, -7043.79, -91694.12, -100163.05, -95232.47, -131188.44, -6650.27, -6645.87, -6880.05, -6626.44, -85111.98, -91208.66, -83034.52, -115308.58, 0.004, 0.928, 0.292, 04:52:02.842
37, -7047.62, -7370.17, -7093.17, -7114.65, -91596.66, -100149.63, -95228.22, -131283.45, -6650.27, -6645.87, -6880.05, -6626.44, -85111.98, -91208.66, -83034.52, -115308.58, 0.000, 0.000, 0.000, 04:52:02.844
38, -7047.62, -7370.17, -7093.17, -7114.65, -91596.66, -100149.63, -95228.22, -131283.45, -6646.18, -6641.89, -6878.68, -6625.41, -85107.84, -91205.89, -83034.41, -115308.29, 0.000, 0.000, 0.000, 04:52:02.849
39, -7098.89, -7225.02, -7092.72, -7039.68, -91690.09, -100158.99, -95228.33, -131183.55, -6646.18, -6641.89, -6878.68, -6625.41, -85107.84, -91205.89, -83034.41, -115308.29, 0.000, 0.000, 0.000, 04:52:02.851
40, -7098.89, -7225.02, -7092.72, -7039.68, -91690.09, -100158.99, -95228.33, -131183.55, -6663.01, -6643.94, -6870.57, -6607.26, -85121.43, -91209.82, -83022.98, -115296.28, 0.000, 0.000, 0.000, 04:52:02.855
41, -7047.50, -7364.85, -7090.53, -7109.93, -91597.55, -100147.45, -95225.88, -131277.27, -6663.01, -6643.94, -6870.57, -6607.26, -85121.43, -91209.82, -83022.98, -115296.28, 0.000, 0.000, 0.000, 04:52:02.859
42, -7047.50, -7364.85, -7090.53, -7109.93, -91597.55, -100147.45, -95225.88, -131277.27, -6632.03, -6642.09, -6882.95, -6638.31, -85096.17, -91201.33, -83039.81, -115315.15, 0.000, 0.000, 0.000, 04:52:02.863
43, -7099.36, -7231.06, -7093.73, -7043.08, -91688.73, -100160.17, -95229.56, -131187.38, -6632.03, -6642.09, -6882.95, -6638.31, -85096.17, -91201.33, -83039.81, -115315.15, 0.000, 0.000, 0.000, 04:52:02.868
44, -7099.36, -7231.06, -7093.73, -7043.08, -91688.73, -100160.17, -95229.56, -131187.38, -6682.14, -6648.62, -6867.77, -6595.42, -85137.75, -91218.41, -83019.12, -115291.75, 0.000, 0.000, 0.000, 04:52:02.871
45, -7056.13, -7359.85, -7093.73, -7108.35, -91607.68, -100151.77, -95229.29, -131272.73, -6682.14, -6648.62, -6867.77, -6595.42, -85137.75, -91218.41, -83019.12, -115291.75, 0.000, 0.000, 0.000, 04:52:02.876
46, -7056.13, -7359.85, -7093.73, -7108.35, -91607.68, -100151.77, -95229.29, -131272.73, -6622.29, -6644.28, -6888.45, -6651.86, -85087.84, -91199.83, -83046.72, -115323.28, 0.008, 0.932, 0.310, 04:52:02.880
47, -7099.85, -7240.83, -7094.24, -7048.33, -91684.46, -100160.82, -95230.59, -131193.36, -6622.29, -6644.28, -6888.45, -6651.86, -85087.84, -91199.83, -83046.72, -115323.28, 0.000, 0.000, 0.000, 04:52:02.883
48, -7099.85, -7240.83, -7094.24, -7048.33, -91684.46, -100160.82, -95230.59, -131193.36, -6698.39, -6651.43, -6863.28, -6583.17, -85151.31, -91224.71, -83014.17, -115286.18, 0.000, 0.000, 0.000, 04:52:02.887
49, -7065.07, -7347.42, -7094.62, -7102.24, -91618.26, -100154.03, -95230.77, -131263.36, -6698.39, -6651.43, -6863.28, -6583.17, -85151.31, -91224.71, -83014.17, -115286.18, 0.000, 0.000, 0.000, 04:52:02.891
50, -7065.07, -7347.42, -7094.62, -7102.24, -91618.26, -100154.03, -95230.77, -131263.36, -6612.45, -6644.68, -6891.22, -6661.00, -85080.13, -91196.81, -83050.27, -115328.07, 0.000, 0.000, 0.000, 04:52:02.896
51, -7093.04, -7251.00, -7092.79, -7052.69, -91675.09, -100158.43, -95229.07, -131200.20, -6612.45, -6644.68, -6891.22, -6661.00, -85080.13, -91196.81, -83050.27, -115328.07, 0.000, 0.000, 0.000, 04:52:02.900
52, -7093.04, -7251.00, -7092.79, -7052.69, -91675.09, -100158.43, -95229.07, -131200.20, -6707.96, -6650.38, -6857.16, -6569.69, -85158.91, -91226.32, -83006.73, -115278.18, 0.000, 0.000, 0.000, 04:52:02.904
53, -7069.79, -7328.53, -7092.74, -7091.31, -91628.07, -100153.42, -95229.07, -131249.38, -6707.96, -6650.38, -6857.16, -6569.69, -85158.91, -91226.32, -83006.73, -115278.18, 0.000, 0.000, 0.000, 04:52:02.908
54, -7069.79, -7328.53, -7092.74, -7091.31, -91628.07, -100153.42, -95229.07, -131249.38, -6606.91, -6646.22, -6894.62, -6668.17, -85075.68, -91195.80, -83053.89, -115332.18, 0.000, 0.000, 0.000, 04:52:02.911
55, -7090.64, -7266.62, -7093.91, -7061.43, -91667.34, -100159.15, -95230.63, -131211.91, -6606.91, -6646.22, -6894.62, -6668.17, -85075.68, -91195.80, -83053.89, -115332.18, 0.000, 0.000, 0.000, 04:52:02.915
56, -7090.64, -7266.62, -7093.91, -7061.43, -91667.34, -100159.15, -95230.63, -131211.91, -6716.21, -6651.28, -6854.68, -6562.56, -85165.87, -91229.67, -83004.63, -115275.05, 0.006, 0.940, 0.336, 04:52:02.919
57, -7078.98, -7310.45, -7093.24, -7082.22, -91641.37, -100155.55, -95229.94, -131236.56, -6716.21, -6651.28, -6854.68, -6562.56, -85165.87, -91229.67, -83004.63, -115275.05, 0.000, 0.000, 0.000, 04:52:02.924
