%OpenBCI Raw EEG Data
%
%Sample Rate = 250.0 Hz
%First Column = SampleIndex
%Last Column = Timestamp 
%Other Columns = EEG data in microvolts followed by Accel Data (in G) interleaved with Aux Data
0, 0.00, 0.00, 0.00, 0.00, 0.00, 0.00, 0.00, 0.00, -40710.41, -38372.69, -40489.58, -32875.86, -49208.95, -51708.30, -51678.15, -77859.08, 0.026, 0.942, 0.290, 03:41:48.093
1, -86575.45, -88579.70, -103848.86, -97108.05, -107174.80, -109143.52, -119328.34, -140772.59, -40710.41, -38372.69, -40489.58, -32875.86, -49208.95, -51708.30, -51678.15, -77859.08, 0.000, 0.000, 0.000, 03:41:48.097
2, -86575.45, -88579.70, -103848.86, -97108.05, -107174.80, -109143.52, -119328.34, -140772.59, -81408.02, -76721.22, -80958.82, -65715.63, -98399.35, -103387.77, -103329.54, -155694.27, 0.000, 0.000, 0.000, 03:41:48.099
3, -86594.77, -88574.80, -103842.94, -97094.90, -107199.03, -109143.25, -119330.20, -140757.78, -81408.02, -76721.22, -80958.82, -65715.63, -98399.35, -103387.77, -103329.54, -155694.27, 0.000, 0.000, 0.000, 03:41:48.104
4, -86594.77, -88574.80, -103842.94, -97094.90, -107199.03, -109143.25, -119330.20, -140757.78, -81406.48, -76720.91, -80950.62, -65706.51, -98404.18, -103390.63, -103325.43, -155692.92, 0.000, 0.000, 0.000, 03:41:48.108
5, -86568.15, -88563.40, -103831.49, -97089.16, -107181.51, -109145.91, -119327.66, -140769.34, -81406.48, -76720.91, -80950.62, -65706.51, -98404.18, -103390.63, -103325.43, -155692.92, 0.000, 0.000, 0.000, 03:41:48.111
6, -86568.15, -88563.40, -103831.49, -97089.16, -107181.51, -109145.91, -119327.66, -140769.34, -81393.78, -76709.46, -80941.50, -65697.54, -98401.00, -103388.57, -103325.70, -155691.55, 0.000, 0.000, 0.000, 03:41:48.115
7, -86579.03, -88556.11, -103825.21, -97074.65, -107198.02, -109141.42, -119327.51, -140753.75, -81393.78, -76709.46, -80941.50, -65697.54, -98401.00, -103388.57, -103325.70, -155691.55, 0.008, 0.940, 0.316, 03:41:48.120
8, -86579.03, -88556.11, -103825.21, -97074.65, -107198.02, -109141.42, -119327.51, -140753.75, -81391.44, -76706.22, -80932.67, -65686.97, -98404.06, -103387.23, -103320.47, -155688.08, 0.000, 0.000, 0.000, 03:41:48.123
9, -86554.29, -88548.20, -103815.94, -97072.51, -107182.40, -109146.38, -119328.25, -140768.88, -81391.44, -76706.22, -80932.67, -65686.97, -98404.06, -103387.23, -103320.47, -155688.08, 0.000, 0.000, 0.000, 03:41:48.127
10, -86554.29, -88548.20, -103815.94, -97072.51, -107182.40, -109146.38, -119328.25, -140768.88, -81378.45, -76696.84, -80929.79, -65685.61, -98402.77, -103391.50, -103329.01, -155694.31, 0.000, 0.000, 0.000, 03:41:48.133
11, -86568.20, -88544.47, -103813.41, -97062.45, -107202.25, -109146.05, -119331.66, -140757.36, -81378.45, -76696.84, -80929.79, -65685.61, -98402.77, -103391.50, -103329.01, -155694.31, 0.000, 0.000, 0.000, 03:41:48.135
12, -86568.20, -88544.47, -103813.41, -97062.45, -107202.25, -109146.05, -119331.66, -140757.36, -81384.53, -76699.18, -80923.08, -65675.81, -98412.07, -103392.20, -103324.51, -155692.19, 0.000, 0.000, 0.000, 03:41:48.139
13, -86546.47, -88536.40, -103804.67, -97058.96, -107189.40, -109150.12, -119332.00, -140770.20, -81384.53, -76699.18, -80923.08, -65675.81, -98412.07, -103392.20, -103324.51, -155692.19, 0.000, 0.000, 0.000, 03:41:48.144
14, -86546.47, -88536.40, -103804.67, -97058.96, -107189.40, -109150.12, -119332.00, -140770.20, -81364.05, -76684.41, -80917.42, -65673.13, -98404.73, -103394.65, -103331.73, -155697.08, 0.000, 0.000, 0.000, 03:41:48.147
15, -86553.71, -88529.34, -103798.03, -97047.18, -107202.88, -109147.21, -119332.96, -140759.25, -81364.05, -76684.41, -80917.42, -65673.13, -98404.73, -103394.65, -103331.73, -155697.08, 0.000, 0.000, 0.000, 03:41:48.151
16, -86553.71, -88529.34, -103798.03, -97047.18, -107202.88, -109147.21, -119332.96, -140759.25, -81369.69, -76684.16, -80907.61, -65658.09, -98412.34, -103390.20, -103322.50, -155689.78, 0.012, 0.940, 0.306, 03:41:48.155
17, -86530.95, -88517.87, -103785.47, -97038.82, -107188.99, -109146.90, -119328.85, -140765.27, -81369.69, -76684.16, -80907.61, -65658.09, -98412.34, -103390.20, -103322.50, -155689.78, 0.000, 0.000, 0.000, 03:41:48.159
18, -86530.95, -88517.87, -103785.47, -97038.82, -107188.99, -109146.90, -119328.85, -140765.27, -81344.05, -76665.84, -80899.61, -65655.05, -98401.20, -103391.86, -103328.65, -155693.94, 0.000, 0.000, 0.000, 03:41:48.164
19, -86533.99, -88511.67, -103781.59, -97029.37, -107199.30, -109145.66, -119331.13, -140759.41, -81344.05, -76665.84, -80899.61, -65655.05, -98401.20, -103391.86, -103328.65, -155693.94, 0.000, 0.000, 0.000, 03:41:48.167
20, -86533.99, -88511.67, -103781.59, -97029.37, -107199.30, -109145.66, -119331.13, -140759.41, -81356.10, -76670.34, -80894.18, -65643.20, -98414.28, -103390.34, -103322.73, -155689.59, 0.000, 0.000, 0.000, 03:41:48.172
21, -86517.81, -88503.83, -103771.44, -97022.73, -107191.52, -109147.52, -119329.73, -140764.94, -81356.10, -76670.34, -80894.18, -65643.20, -98414.28, -103390.34, -103322.73, -155689.59, 0.000, 0.000, 0.000, 03:41:48.175
22, -86517.81, -88503.83, -103771.44, -97022.73, -107191.52, -109147.52, -119329.73, -140764.94, -81328.23, -76651.21, -80887.25, -65641.73, -98401.79, -103393.09, -103330.63, -155695.25, 0.000, 0.000, 0.000, 03:41:48.178
23, -86514.46, -88495.80, -103765.71, -97013.41, -107195.97, -109145.42, -119331.04, -140761.95, -81328.23, -76651.21, -80887.25, -65641.73, -98401.79, -103393.09, -103330.63, -155695.25, 0.000, 0.000, 0.000, 03:41:48.183
24, -86514.46, -88495.80, -103765.71, -97013.41, -107195.97, -109145.42, -119331.04, -140761.95, -81339.54, -76654.52, -80879.92, -65628.01, -98414.08, -103389.60, -103323.48, -155689.28, 0.000, 0.000, 0.000, 03:41:48.188
25, -86505.88, -88488.32, -103755.85, -97005.78, -107193.24, -109146.49, -119329.92, -140763.30, -81339.54, -76654.52, -80879.92, -65628.01, -98414.08, -103389.60, -103323.48, -155689.28, 0.000, 0.000, 0.000, 03:41:48.191
26, -86505.88, -88488.32, -103755.85, -97005.78, -107193.24, -109146.49, -119329.92, -140763.30, -81310.03, -76635.26, -80872.61, -65627.38, -98400.78, -103392.80, -103332.06, -155695.78, 0.012, 0.930, 0.310, 03:41:48.195
27, -86495.98, -88479.51, -103749.09, -96997.67, -107191.68, -109144.50, -119330.15, -140762.88, -81310.03, -76635.26, -80872.61, -65627.38, -98400.78, -103392.80, -103332.06, -155695.78, 0.000, 0.000, 0.000, 03:41:48.198
28, -86495.98, -88479.51, -103749.09, -96997.67, -107191.68, -109144.50, -119330.15, -140762.88, -81321.30, -76636.66, -80865.57, -65613.05, -98412.09, -103387.81, -103324.76, -155689.14, 0.000, 0.000, 0.000, 03:41:48.204
29, -86489.49, -88471.91, -103739.88, -96988.04, -107192.84, -109144.03, -119328.77, -140761.20, -81321.30, -76636.66, -80865.57, -65613.05, -98412.09, -103387.81, -103324.76, -155689.14, 0.000, 0.000, 0.000, 03:41:48.208
30, -86489.49, -88471.91, -103739.88, -96988.04, -107192.84, -109144.03, -119328.77, -140761.20, -81292.55, -76617.20, -80857.59, -65611.30, -98398.73, -103390.80, -103331.33, -155694.38, 0.000, 0.000, 0.000, 03:41:48.212
31, -86474.47, -88460.73, -103730.11, -96979.32, -107185.55, -109141.77, -119327.60, -140763.34, -81292.55, -76617.20, -80857.59, -65611.30, -98398.73, -103390.80, -103331.33, -155694.38, 0.000, 0.000, 0.000, 03:41:48.215
32, -86474.47, -88460.73, -103730.11, -96979.32, -107185.55, -109141.77, -119327.60, -140763.34, -81301.88, -76618.47, -80849.48, -65596.35, -98409.72, -103385.76, -103324.04, -155687.53, 0.000, 0.000, 0.000, 03:41:48.220
33, -86477.96, -88455.93, -103723.84, -96970.58, -107195.27, -109143.23, -119328.77, -140759.72, -81301.88, -76618.47, -80849.48, -65596.35, -98409.72, -103385.76, -103324.04, -155687.53, 0.000, 0.000, 0.000, 03:41:48.223
34, -86477.96, -88455.93, -103723.84, -96970.58, -107195.27, -109143.23, -119328.77, -140759.72, -81279.99, -76606.60, -80845.30, -65598.55, -98402.45, -103393.60, -103333.67, -155696.61, 0.000, 0.000, 0.000, 03:41:48.226
35, -86460.27, -88447.91, -103717.95, -96966.31, -107187.81, -109145.62, -119330.53, -140768.23, -81279.99, -76606.60, -80845.30, -65598.55, -98402.45, -103393.60, -103333.67, -155696.61, 0.000, 0.000, 0.000, 03:41:48.231
36, -86460.27, -88447.91, -103717.95, -96966.31, -107187.81, -109145.62, -119330.53, -140768.23, -81286.14, -76605.48, -80836.00, -65582.27, -98410.75, -103386.80, -103325.16, -155688.14, 0.014, 0.932, 0.308, 03:41:48.234
37, -86462.67, -88437.98, -103705.63, -96950.20, -107195.72, -109140.68, -119325.50, -140753.28, -81286.14, -76605.48, -80836.00, -65582.27, -98410.75, -103386.80, -103325.16, -155688.14, 0.000, 0.000, 0.000, 03:41:48.239
38, -86462.67, -88437.98, -103705.63, -96950.20, -107195.72, -109140.68, -119325.50, -140753.28, -81261.77, -76588.54, -80824.30, -65576.06, -98399.02, -103387.68, -103325.54, -155689.14, 0.000, 0.000, 0.000, 03:41:48.243
39, -86441.55, -88427.32, -103696.24, -96944.56, -107182.02, -109141.66, -119325.25, -140763.38, -81261.77, -76588.54, -80824.30, -65576.06, -98399.02, -103387.68, -103325.54, -155689.14, 0.000, 0.000, 0.000, 03:41:48.247
40, -86441.55, -88427.32, -103696.24, -96944.56, -107182.02, -109141.66, -119325.25, -140763.38, -81268.84, -76588.56, -80818.85, -65564.93, -98409.27, -103386.20, -103322.55, -155686.20, 0.000, 0.000, 0.000, 03:41:48.252
41, -86453.64, -88423.03, -103689.85, -96933.43, -107200.39, -109142.00, -119326.77, -140752.59, -81268.84, -76588.56, -80818.85, -65564.93, -98409.27, -103386.20, -103322.55, -155686.20, 0.000, 0.000, 0.000, 03:41:48.254
42, -86453.64, -88423.03, -103689.85, -96933.43, -107200.39, -109142.00, -119326.77, -140752.59, -81253.98, -76579.89, -80813.22, -65562.63, -98405.49, -103391.99, -103326.77, -155691.30, 0.000, 0.000, 0.000, 03:41:48.258
43, -86430.10, -88415.48, -103683.99, -96931.84, -107187.95, -109146.78, -119328.77, -140767.50, -81253.98, -76579.89, -80813.22, -65562.63, -98405.49, -103391.99, -103326.77, -155691.30, 0.000, 0.000, 0.000, 03:41:48.263
44, -86430.10, -88415.48, -103683.99, -96931.84, -107187.95, -109146.78, -119328.77, -140767.50, -81255.41, -76577.38, -80807.34, -65552.61, -98412.38, -103390.25, -103325.90, -155689.27, 0.000, 0.000, 0.000, 03:41:48.266
45, -86442.15, -88410.13, -103678.70, -96918.88, -107206.25, -109144.97, -119329.45, -140753.98, -81255.41, -76577.38, -80807.34, -65552.61, -98412.38, -103390.25, -103325.90, -155689.27, 0.000, 0.000, 0.000, 03:41:48.271
46, -86442.15, -88410.13, -103678.70, -96918.88, -107206.25, -109144.97, -119329.45, -140753.98, -81242.04, -76568.65, -80799.01, -65546.89, -98408.96, -103392.41, -103326.03, -155690.59, 0.012, 0.928, 0.290, 03:41:48.276
47, -86415.75, -88401.44, -103669.96, -96916.52, -107188.48, -109149.04, -119330.22, -140769.05, -81242.04, -76568.65, -80799.01, -65546.89, -98408.96, -103392.41, -103326.03, -155690.59, 0.000, 0.000, 0.000, 03:41:48.279
48, -86415.75, -88401.44, -103669.96, -96916.52, -107188.48, -109149.04, -119330.22, -140769.05, -81240.23, -76564.49, -80795.92, -65541.23, -98414.59, -103393.63, -103329.77, -155692.66, 0.000, 0.000, 0.000, 03:41:48.283
49, -86429.74, -88396.16, -103664.37, -96903.70, -107207.03, -109146.67, -119331.69, -140755.28, -81240.23, -76564.49, -80795.92, -65541.23, -98414.59, -103393.63, -103329.77, -155692.66, 0.000, 0.000, 0.000, 03:41:48.286
50, -86429.74, -88396.16, -103664.37, -96903.70, -107207.03, -109146.67, -119331.69, -140755.28, -81230.75, -76557.34, -80787.07, -65533.37, -98413.34, -103394.47, -103327.88, -155692.03, 0.000, 0.000, 0.000, 03:41:48.290
51, -86402.74, -88387.65, -103656.41, -96902.16, -107190.02, -109151.32, -119332.79, -140771.14, -81230.75, -76557.34, -80787.07, -65533.37, -98413.34, -103394.47, -103327.88, -155692.03, 0.000, 0.000, 0.000, 03:41:48.295
52, -86402.74, -88387.65, -103656.41, -96902.16, -107190.02, -109151.32, -119332.79, -140771.14, -81221.95, -76548.62, -80782.30, -65527.71, -98413.56, -103394.49, -103331.95, -155693.95, 0.000, 0.000, 0.000, 03:41:48.300
53, -86412.09, -88379.45, -103647.70, -96886.36, -107206.20, -109145.06, -119330.23, -140752.63, -81221.95, -76548.62, -80782.30, -65527.71, -98413.56, -103394.49, -103331.95, -155693.95, 0.000, 0.000, 0.000, 03:41:48.303
54, -86412.09, -88379.45, -103647.70, -96886.36, -107206.20, -109145.06, -119330.23, -140752.63, -81215.38, -76541.34, -80771.29, -65515.53, -98412.85, -103391.45, -103325.88, -155689.39, 0.000, 0.000, 0.000, 03:41:48.307
55, -86383.25, -88368.22, -103637.05, -96881.94, -107187.14, -109146.96, -119328.61, -140766.88, -81215.38, -76541.34, -80771.29, -65515.53, -98412.85, -103391.45, -103325.88, -155689.39, 0.000, 0.000, 0.000, 03:41:48.310
56, -86383.25, -88368.22, -103637.05, -96881.94, -107187.14, -109146.96, -119328.61, -140766.88, -81200.87, -76529.06, -80766.22, -65511.87, -98409.70, -103392.95, -103332.18, -155693.44, 0.006, 0.928, 0.286, 03:41:48.315
57, -86397.78, -88364.98, -103634.10, -96872.21, -107206.48, -109146.60, -119332.67, -140756.89, -81200.87, -76529.06, -80766.22, -65511.87, -98409.70, -103392.95, -103332.18, -155693.44, 0.000, 0.000, 0.000, 03:41:48.318
58, -86397.78, -88364.98, -103634.10, -96872.21, -107206.48, -109146.60, -119332.67, -140756.89, -81202.81, -76529.06, -80759.48, -65502.37, -98416.54, -103393.00, -103328.69, -155691.39, 0.000, 0.000, 0.000, 03:41:48.323
59, -86371.14, -88354.43, -103622.93, -96867.18, -107189.09, -109148.44, -119330.82, -140768.94, -81202.81, -76529.06, -80759.48, -65502.37, -98416.54, -103393.00, -103328.69, -155691.39, 0.000, 0.000, 0.000, 03:41:48.328
60, -86371.14, -88354.43, -103622.93, -96867.18, -107189.09, -109148.44, -119330.82, -140768.94, -81183.55, -76515.79, -80754.39, -65500.38, -98410.55, -103395.61, -103336.76, -155696.72, 0.000, 0.000, 0.000, 03:41:48.331
61, -86380.86, -88349.24, -103619.04, -96856.54, -107204.91, -109146.91, -119333.45, -140759.66, -81183.55, -76515.79, -80754.39, -65500.38, -98410.55, -103395.61, -103336.76, -155696.72, 0.000, 0.000, 0.000, 03:41:48.335
62, -86380.86, -88349.24, -103619.04, -96856.54, -107204.91, -109146.91, -119333.45, -140759.66, -81188.17, -76515.77, -80745.43, -65487.23, -98417.84, -103392.44, -103329.09, -155690.98, 0.000, 0.000, 0.000, 03:41:48.338
63, -86360.92, -88341.35, -103609.18, -96852.43, -107192.88, -109150.59, -119333.14, -140769.83, -81188.17, -76515.77, -80745.43, -65487.23, -98417.84, -103392.44, -103329.09, -155690.98, 0.000, 0.000, 0.000, 03:41:48.343
64, -86360.92, -88341.35, -103609.18, -96852.43, -107192.88, -109150.59, -119333.14, -140769.83, -81170.83, -76504.45, -80744.91, -65490.81, -98414.41, -103400.87, -103342.37, -155702.05, 0.000, 0.000, 0.000, 03:41:48.347
65, -86366.98, -88337.73, -103607.53, -96844.70, -107207.50, -109151.30, -119337.62, -140764.91, -81170.83, -76504.45, -80744.91, -65490.81, -98414.41, -103400.87, -103342.37, -155702.05, 0.000, 0.000, 0.000, 03:41:48.350
66, -86366.98, -88337.73, -103607.53, -96844.70, -107207.50, -109151.30, -119337.62, -140764.91, -81179.09, -76504.07, -80736.02, -65475.88, -98423.53, -103396.84, -103333.54, -155694.98, 0.014, 0.934, 0.286, 03:41:48.355
67, -86350.80, -88329.60, -103597.41, -96839.06, -107199.48, -109154.12, -119337.13, -140772.83, -81179.09, -76504.07, -80736.02, -65475.88, -98423.53, -103396.84, -103333.54, -155694.98, 0.000, 0.000, 0.000, 03:41:48.360
68, -86350.80, -88329.60, -103597.41, -96839.06, -107199.48, -109154.12, -119337.13, -140772.83, -81153.13, -76486.88, -80730.03, -65475.21, -98413.37, -103401.34, -103342.84, -155702.05, 0.000, 0.000, 0.000, 03:41:48.363
69, -86348.85, -88319.38, -103589.13, -96826.91, -107204.10, -109149.87, -119335.65, -140764.53, -81153.13, -76486.88, -80730.03, -65475.21, -98413.37, -103401.34, -103342.84, -155702.05, 0.000, 0.000, 0.000, 03:41:48.367
70, -86348.85, -88319.38, -103589.13, -96826.91, -107204.10, -109149.87, -119335.65, -140764.53, -81161.33, -76487.80, -80719.66, -65458.07, -98422.48, -103394.70, -103332.31, -155692.72, 0.000, 0.000, 0.000, 03:41:48.370
71, -86334.19, -88311.18, -103580.17, -96818.73, -107198.38, -109150.54, -119334.04, -140767.80, -81161.33, -76487.80, -80719.66, -65458.07, -98422.48, -103394.70, -103332.31, -155692.72, 0.000, 0.000, 0.000, 03:41:48.374
72, -86334.19, -88311.18, -103580.17, -96818.73, -107198.38, -109150.54, -119334.04, -140767.80, -81135.58, -76471.73, -80714.63, -65459.32, -98412.29, -103400.30, -103342.44, -155700.97, 0.000, 0.000, 0.000, 03:41:48.379
73, -86330.16, -88303.58, -103574.23, -96811.46, -107200.39, -109150.72, -119336.54, -140767.64, -81135.58, -76471.73, -80714.63, -65459.32, -98412.29, -103400.30, -103342.44, -155700.97, 0.000, 0.000, 0.000, 03:41:48.384
74, -86330.16, -88303.58, -103574.23, -96811.46, -107200.39, -109150.72, -119336.54, -140767.64, -81146.75, -76474.86, -80707.16, -65445.05, -98424.70, -103395.86, -103334.93, -155694.47, 0.000, 0.000, 0.000, 03:41:48.387
75, -86323.55, -88296.27, -103564.57, -96802.18, -107200.35, -109150.85, -119335.22, -140767.33, -81146.75, -76474.86, -80707.16, -65445.05, -98424.70, -103395.86, -103334.93, -155694.47, 0.000, 0.000, 0.000, 03:41:48.391
76, -86323.55, -88296.27, -103564.57, -96802.18, -107200.35, -109150.85, -119335.22, -140767.33, -81118.28, -76455.62, -80698.89, -65443.00, -98411.27, -103398.85, -103341.52, -155699.52, 0.022, 0.936, 0.284, 03:41:48.395
77, -86307.66, -88284.11, -103555.43, -96791.86, -107195.30, -109147.63, -119333.55, -140767.44, -81118.28, -76455.62, -80698.89, -65443.00, -98411.27, -103398.85, -103341.52, -155699.52, 0.000, 0.000, 0.000, 03:41:48.399
78, -86307.66, -88284.11, -103555.43, -96791.86, -107195.30, -109147.63, -119333.55, -140767.44, -81126.68, -76455.59, -80689.62, -65426.08, -98420.92, -103392.08, -103332.34, -155690.80, 0.000, 0.000, 0.000, 03:41:48.402
79, -86306.20, -88277.59, -103546.55, -96781.95, -107201.76, -109147.61, -119332.65, -140762.63, -81126.68, -76455.59, -80689.62, -65426.08, -98420.92, -103392.08, -103332.34, -155690.80, 0.000, 0.000, 0.000, 03:41:48.407
80, -86306.20, -88277.59, -103546.55, -96781.95, -107201.76, -109147.61, -119332.65, -140762.63, -81101.91, -76440.26, -80683.16, -65425.75, -98410.57, -103397.40, -103340.34, -155697.91, 0.000, 0.000, 0.000, 03:41:48.411
81, -86290.45, -88268.71, -103540.09, -96776.45, -107195.19, -109148.73, -119334.02, -140769.34, -81101.91, -76440.26, -80683.16, -65425.75, -98410.57, -103397.40, -103340.34, -155697.91, 0.000, 0.000, 0.000, 03:41:48.414
82, -86290.45, -88268.71, -103540.09, -96776.45, -107195.19, -109148.73, -119334.02, -140769.34, -81110.95, -76441.31, -80676.16, -65411.95, -98421.73, -103393.22, -103334.32, -155692.08, 0.000, 0.000, 0.000, 03:41:48.418
83, -86295.91, -88264.02, -103534.02, -96766.63, -107205.96, -109149.63, -119335.22, -140762.34, -81110.95, -76441.31, -80676.16, -65411.95, -98421.73, -103393.22, -103334.32, -155692.08, 0.000, 0.000, 0.000, 03:41:48.422
84, -86295.91, -88264.02, -103534.02, -96766.63, -107205.96, -109149.63, -119335.22, -140762.34, -81091.70, -76430.31, -80672.98, -65414.48, -98416.70, -103401.96, -103344.43, -155701.75, 0.000, 0.000, 0.000, 03:41:48.427
85, -86277.10, -88256.33, -103527.80, -96763.70, -107195.45, -109152.70, -119337.79, -140773.53, -81091.70, -76430.31, -80672.98, -65414.48, -98416.70, -103401.96, -103344.43, -155701.75, 0.016, 0.942, 0.282, 03:41:48.430
86, -86277.10, -88256.33, -103527.80, -96763.70, -107195.45, -109152.70, -119337.79, -140773.53, -81094.63, -76426.00, -80663.27, -65398.77, -98422.55, -103394.88, -103337.14, -155693.84, 0.000, 0.000, 0.000, 03:41:48.435
87, -86281.48, -88246.36, -103516.36, -96747.35, -107205.29, -109147.14, -119333.61, -140758.39, -81094.63, -76426.00, -80663.27, -65398.77, -98422.55, -103394.88, -103337.14, -155693.84, 0.000, 0.000, 0.000, 03:41:48.439
88, -86281.48, -88246.36, -103516.36, -96747.35, -107205.29, -109147.14, -119333.61, -140758.39, -81073.82, -76413.21, -80655.09, -65395.57, -98415.13, -103398.52, -103341.09, -155697.84, 0.000, 0.000, 0.000, 03:41:48.442
89, -86261.55, -88240.15, -103511.39, -96747.27, -107194.67, -109152.80, -119337.75, -140774.14, -81073.82, -76413.21, -80655.09, -65395.57, -98415.13, -103398.52, -103341.09, -155697.84, 0.000, 0.000, 0.000, 03:41:48.448
90, -86261.55, -88240.15, -103511.39, -96747.27, -107194.67, -109152.80, -119337.75, -140774.14, -81080.34, -76414.17, -80653.07, -65388.75, -98425.92, -103399.59, -103343.38, -155699.19, 0.000, 0.000, 0.000, 03:41:48.451
91, -86274.45, -88236.80, -103506.95, -96736.70, -107213.94, -109152.59, -119339.73, -140763.28, -81080.34, -76414.17, -80653.07, -65388.75, -98425.92, -103399.59, -103343.38, -155699.19, 0.000, 0.000, 0.000, 03:41:48.457
92, -86274.45, -88236.80, -103506.95, -96736.70, -107213.94, -109152.59, -119339.73, -140763.28, -81065.82, -76404.18, -80646.19, -65384.95, -98421.70, -103403.03, -103345.99, -155702.31, 0.000, 0.000, 0.000, 03:41:48.459
93, -86244.92, -88225.88, -103497.16, -96732.34, -107195.74, -109154.20, -119339.00, -140777.20, -81065.82, -76404.18, -80646.19, -65384.95, -98421.70, -103403.03, -103345.99, -155702.31, 0.000, 0.000, 0.000, 03:41:48.462
94, -86244.92, -88225.88, -103497.16, -96732.34, -107195.74, -109154.20, -119339.00, -140777.20, -81060.56, -76395.27, -80638.07, -65373.17, -98422.95, -103398.38, -103343.51, -155698.53, 0.000, 0.000, 0.000, 03:41:48.467
95, -86254.66, -88217.59, -103488.39, -96716.64, -107210.79, -109148.98, -119336.90, -140760.67, -81060.56, -76395.27, -80638.07, -65373.17, -98422.95, -103398.38, -103343.51, -155698.53, 0.014, 0.938, 0.282, 03:41:48.471
96, -86254.66, -88217.59, -103488.39, -96716.64, -107210.79, -109148.98, -119336.90, -140760.67, -81048.92, -76387.33, -80629.53, -65366.31, -98420.41, -103399.55, -103342.98, -155698.89, 0.000, 0.000, 0.000, 03:41:48.473
97, -86226.75, -88208.66, -103479.95, -96714.52, -107192.26, -109152.66, -119337.55, -140777.16, -81048.92, -76387.33, -80629.53, -65366.31, -98420.41, -103399.55, -103342.98, -155698.89, 0.000, 0.000, 0.000, 03:41:48.478
98, -86226.75, -88208.66, -103479.95, -96714.52, -107192.26, -109152.66, -119337.55, -140777.16, -81040.63, -76379.10, -80623.34, -65358.93, -98421.01, -103398.36, -103345.39, -155699.31, 0.000, 0.000, 0.000, 03:41:48.483
99, -86240.72, -88202.33, -103473.55, -96701.00, -107210.20, -109149.22, -119338.06, -140762.08, -81040.63, -76379.10, -80623.34, -65358.93, -98421.01, -103398.36, -103345.39, -155699.31, 0.000, 0.000, 0.000, 03:41:48.487
100, -86240.72, -88202.33, -103473.55, -96701.00, -107210.20, -109149.22, -119338.06, -140762.08, -81035.22, -76374.92, -80616.13, -65351.78, -98423.09, -103399.84, -103344.23, -155699.63, 0.000, 0.000, 0.000, 03:41:48.490
101, -86211.81, -88193.05, -103464.14, -96698.23, -107192.16, -109152.75, -119337.99, -140777.42, -81035.22, -76374.92, -80616.13, -65351.78, -98423.09, -103399.84, -103344.23, -155699.63, 0.000, 0.000, 0.000, 03:41:48.494
102, -86211.81, -88193.05, -103464.14, -96698.23, -107192.16, -109152.75, -119337.99, -140777.42, -81021.90, -76362.63, -80610.36, -65346.13, -98419.91, -103399.57, -103348.49, -155701.59, 0.000, 0.000, 0.000, 03:41:48.497
103, -86222.21, -88186.99, -103458.73, -96685.28, -107209.76, -109149.31, -119338.73, -140762.94, -81021.90, -76362.63, -80610.36, -65346.13, -98419.91, -103399.57, -103348.49, -155701.59, 0.000, 0.000, 0.000, 03:41:48.501
104, -86222.21, -88186.99, -103458.73, -96685.28, -107209.76, -109149.31, -119338.73, -140762.94, -81022.03, -76361.00, -80603.92, -65337.90, -98425.44, -103400.58, -103346.05, -155700.69, 0.000, 0.000, 0.000, 03:41:48.507
105, -86199.21, -88180.73, -103451.58, -96684.70, -107195.79, -109155.55, -119341.05, -140779.19, -81022.03, -76361.00, -80603.92, -65337.90, -98425.44, -103400.58, -103346.05, -155700.69, 0.018, 0.936, 0.300, 03:41:48.510
106, -86199.21, -88180.73, -103451.58, -96684.70, -107195.79, -109155.55, -119341.05, -140779.19, -81004.35, -76347.34, -80598.63, -65335.22, -98420.31, -103402.83, -103353.63, -155705.58, 0.000, 0.000, 0.000, 03:41:48.515
107, -86206.18, -88170.50, -103442.57, -96669.08, -107207.32, -109148.99, -119338.69, -140763.81, -81004.35, -76347.34, -80598.63, -65335.22, -98420.31, -103402.83, -103353.63, -155705.58, 0.000, 0.000, 0.000, 03:41:48.519
108, -86206.18, -88170.50, -103442.57, -96669.08, -107207.32, -109148.99, -119338.69, -140763.81, -81003.61, -76342.85, -80586.89, -65320.13, -98423.55, -103397.31, -103344.52, -155698.00, 0.000, 0.000, 0.000, 03:41:48.522
109, -86179.79, -88160.59, -103432.11, -96663.73, -107190.83, -109150.83, -119336.90, -140774.61, -81003.61, -76342.85, -80586.89, -65320.13, -98423.55, -103397.31, -103344.52, -155698.00, 0.000, 0.000, 0.000, 03:41:48.526
110, -86179.79, -88160.59, -103432.11, -96663.73, -107190.83, -109150.83, -119336.90, -140774.61, -80981.20, -76326.11, -80580.92, -65317.67, -98414.86, -103399.34, -103352.16, -155702.97, 0.000, 0.000, 0.000, 03:41:48.529
111, -86183.97, -88152.82, -103425.72, -96651.76, -107201.98, -109147.37, -119337.66, -140764.63, -80981.20, -76326.11, -80580.92, -65317.67, -98414.86, -103399.34, -103352.16, -155702.97, 0.000, 0.000, 0.000, 03:41:48.535
112, -86183.97, -88152.82, -103425.72, -96651.76, -107201.98, -109147.37, -119337.66, -140764.63, -80989.20, -76328.73, -80574.77, -65306.21, -98425.23, -103397.83, -103346.86, -155699.34, 0.000, 0.000, 0.000, 03:41:48.540
113, -86165.66, -88146.07, -103417.34, -96647.95, -107192.75, -109151.25, -119338.17, -140775.48, -80989.20, -76328.73, -80574.77, -65306.21, -98425.23, -103397.83, -103346.86, -155699.34, 0.000, 0.000, 0.000, 03:41:48.543
114, -86165.66, -88146.07, -103417.34, -96647.95, -107192.75, -109151.25, -119338.17, -140775.48, -80962.51, -76310.09, -80567.13, -65303.77, -98413.61, -103399.32, -103354.35, -155704.08, 0.000, 0.000, 0.000, 03:41:48.547
115, -86163.55, -88135.79, -103409.49, -96634.75, -107198.60, -109145.98, -119336.48, -140766.08, -80962.51, -76310.09, -80567.13, -65303.77, -98413.61, -103399.32, -103354.35, -155704.08, 0.024, 0.940, 0.308, 03:41:48.550
116, -86163.55, -88135.79, -103409.49, -96634.75, -107198.60, -109145.98, -119336.48, -140766.08, -80970.84, -76310.91, -80557.79, -65288.30, -98422.98, -103394.05, -103344.78, -155696.22, 0.000, 0.000, 0.000, 03:41:48.554
117, -86148.74, -88127.18, -103398.14, -96627.02, -107191.61, -109146.88, -119334.41, -140770.19, -80970.84, -76310.91, -80557.79, -65288.30, -98422.98, -103394.05, -103344.78, -155696.22, 0.000, 0.000, 0.000, 03:41:48.558
118, -86148.74, -88127.18, -103398.14, -96627.02, -107191.61, -109146.88, -119334.41, -140770.19, -80944.29, -76293.27, -80551.62, -65287.81, -98411.77, -103397.94, -103353.63, -155702.92, 0.000, 0.000, 0.000, 03:41:48.565
119, -86144.58, -88117.68, -103390.59, -96616.46, -107194.05, -109143.74, -119334.28, -140766.50, -80944.29, -76293.27, -80551.62, -65287.81, -98411.77, -103397.94, -103353.63, -155702.92, 0.000, 0.000, 0.000, 03:41:48.568
120, -86144.58, -88117.68, -103390.59, -96616.46, -107194.05, -109143.74, -119334.28, -140766.50, -80952.20, -76292.89, -80540.48, -65270.09, -98420.74, -103390.80, -103342.66, -155693.13, 0.000, 0.000, 0.000, 03:41:48.572
121, -86135.84, -88109.70, -103380.97, -96607.84, -107192.34, -109144.57, -119333.23, -140767.27, -80952.20, -76292.89, -80540.48, -65270.09, -98420.74, -103390.80, -103342.66, -155693.13, 0.000, 0.000, 0.000, 03:41:48.574
122, -86135.84, -88109.70, -103380.97, -96607.84, -107192.34, -109144.57, -119333.23, -140767.27, -80927.77, -76278.41, -80536.69, -65272.43, -98412.13, -103398.20, -103353.84, -155702.84, 0.000, 0.000, 0.000, 03:41:48.578
123, -86129.98, -88104.72, -103377.40, -96603.09, -107195.14, -109147.01, -119337.32, -140771.38, -80927.77, -76278.41, -80536.69, -65272.43, -98412.13, -103398.20, -103353.84, -155702.84, 0.000, 0.000, 0.000, 03:41:48.582
124, -86129.98, -88104.72, -103377.40, -96603.09, -107195.14, -109147.01, -119337.32, -140771.38, -80941.16, -76283.33, -80530.98, -65259.67, -98426.48, -103395.91, -103348.38, -155698.11, 0.000, 0.000, 0.000, 03:41:48.586
125, -86129.49, -88098.95, -103370.02, -96594.87, -107200.66, -109149.33, -119337.95, -140769.20, -80941.16, -76283.33, -80530.98, -65259.67, -98426.48, -103395.91, -103348.38, -155698.11, 0.020, 0.950, 0.304, 03:41:48.589
126, -86129.49, -88098.95, -103370.02, -96594.87, -107200.66, -109149.33, -119337.95, -140769.20, -80914.90, -76267.10, -80524.50, -65259.54, -98415.89, -103401.42, -103356.59, -155705.20, 0.000, 0.000, 0.000, 03:41:48.596
127, -86113.34, -88089.12, -103362.58, -96587.52, -107194.85, -109148.75, -119338.22, -140772.33, -80914.90, -76267.10, -80524.50, -65259.54, -98415.89, -103401.42, -103356.59, -155705.20, 0.000, 0.000, 0.000, 03:41:48.598
128, -86113.34, -88089.12, -103362.58, -96587.52, -107194.85, -109148.75, -119338.22, -140772.33, -80925.27, -76267.91, -80517.02, -65244.45, -98426.75, -103396.41, -103349.03, -155698.09, 0.000, 0.000, 0.000, 03:41:48.602
129, -86114.56, -88083.10, -103354.40, -96576.61, -107203.30, -109148.59, -119337.39, -140765.00, -80925.27, -76267.91, -80517.02, -65244.45, -98426.75, -103396.41, -103349.03, -155698.09, 0.000, 0.000, 0.000, 03:41:48.606
130, -86114.56, -88083.10, -103354.40, -96576.61, -107203.30, -109148.59, -119337.39, -140765.00, -80901.29, -76252.46, -80510.49, -65243.67, -98417.45, -103401.63, -103355.91, -155704.45, 0.000, 0.000, 0.000, 03:41:48.610
131, -86095.48, -88074.23, -103347.66, -96571.94, -107193.82, -109150.18, -119338.95, -140773.52, -80901.29, -76252.46, -80510.49, -65243.67, -98417.45, -103401.63, -103355.91, -155704.45, 0.000, 0.000, 0.000, 03:41:48.616
132, -86095.48, -88074.23, -103347.66, -96571.94, -107193.82, -109150.18, -119338.95, -140773.52, -80908.71, -76251.99, -80503.74, -65230.61, -98427.47, -103397.96, -103351.06, -155699.61, 0.000, 0.000, 0.000, 03:41:48.619
133, -86102.98, -88067.79, -103339.60, -96560.12, -107206.16, -109148.99, -119338.58, -140763.84, -80908.71, -76251.99, -80503.74, -65230.61, -98427.47, -103397.96, -103351.06, -155699.61, 0.000, 0.000, 0.000, 03:41:48.623
134, -86102.98, -88067.79, -103339.60, -96560.12, -107206.16, -109148.99, -119338.58, -140763.84, -80889.40, -76240.37, -80498.20, -65229.77, -98421.05, -103403.63, -103357.52, -155705.95, 0.000, 0.000, 0.000, 03:41:48.627
135, -86081.57, -88060.98, -103334.37, -96558.46, -107194.85, -109153.22, -119341.46, -140778.23, -80889.40, -76240.37, -80498.20, -65229.77, -98421.05, -103403.63, -103357.52, -155705.95, 0.016, 0.950, 0.296, 03:41:48.630
136, -86081.57, -88060.98, -103334.37, -96558.46, -107194.85, -109153.22, -119341.46, -140778.23, -80892.63, -76238.42, -80491.04, -65217.94, -98428.79, -103400.13, -103354.66, -155702.27, 0.000, 0.000, 0.000, 03:41:48.634
137, -86091.59, -88053.09, -103325.80, -96544.40, -107208.75, -109149.95, -119340.16, -140764.83, -80892.63, -76238.42, -80491.04, -65217.94, -98428.79, -103400.13, -103354.66, -155702.27, 0.000, 0.000, 0.000, 03:41:48.638
138, -86091.59, -88053.09, -103325.80, -96544.40, -107208.75, -109149.95, -119340.16, -140764.83, -80875.00, -76227.78, -80483.17, -65214.27, -98423.22, -103403.44, -103357.50, -155705.73, 0.000, 0.000, 0.000, 03:41:48.644
139, -86065.30, -88043.23, -103316.66, -96540.73, -107192.01, -109152.23, -119340.14, -140778.48, -80875.00, -76227.78, -80483.17, -65214.27, -98423.22, -103403.44, -103357.50, -155705.73, 0.000, 0.000, 0.000, 03:41:48.647
140, -86065.30, -88043.23, -103316.66, -96540.73, -107192.01, -109152.23, -119340.14, -140778.48, -80872.41, -76220.95, -80474.66, -65201.54, -98425.95, -103398.23, -103353.95, -155700.91, 0.000, 0.000, 0.000, 03:41:48.650
141, -86074.35, -88034.63, -103307.66, -96524.87, -107207.44, -109147.23, -119337.99, -140761.94, -80872.41, -76220.95, -80474.66, -65201.54, -98425.95, -103398.23, -103353.95, -155700.91, 0.000, 0.000, 0.000, 03:41:48.655
142, -86074.35, -88034.63, -103307.66, -96524.87, -107207.44, -109147.23, -119337.99, -140761.94, -80859.11, -76211.73, -80465.67, -65194.58, -98422.26, -103399.55, -103353.44, -155701.63, 0.000, 0.000, 0.000, 03:41:48.658
143, -86047.82, -88025.99, -103299.41, -96522.77, -107191.41, -109151.48, -119339.18, -140778.09, -80859.11, -76211.73, -80465.67, -65194.58, -98422.26, -103399.55, -103353.44, -155701.63, 0.000, 0.000, 0.000, 03:41:48.662
144, -86047.82, -88025.99, -103299.41, -96522.77, -107191.41, -109151.48, -119339.18, -140778.09, -80858.66, -76208.63, -80462.84, -65189.15, -98428.66, -103401.96, -103357.77, -155704.55, 0.016, 0.950, 0.298, 03:41:48.665
145, -86065.32, -88022.64, -103295.52, -96512.02, -107214.05, -109151.59, -119342.35, -140766.00, -80858.66, -76208.63, -80462.84, -65189.15, -98428.66, -103401.96, -103357.77, -155704.55, 0.000, 0.000, 0.000, 03:41:48.670
146, -86065.32, -88022.64, -103295.52, -96512.02, -107214.05, -109151.59, -119342.35, -140766.00, -80850.66, -76202.16, -80454.23, -65180.88, -98428.49, -103402.90, -103355.76, -155703.83, 0.000, 0.000, 0.000, 03:41:48.674
147, -86036.22, -88012.23, -103285.64, -96508.68, -107195.32, -109154.63, -119341.95, -140781.81, -80850.66, -76202.16, -80454.23, -65180.88, -98428.49, -103402.90, -103355.76, -155703.83, 0.000, 0.000, 0.000, 03:41:48.679
148, -86036.22, -88012.23, -103285.64, -96508.68, -107195.32, -109154.63, -119341.95, -140781.81, -80839.44, -76191.20, -80448.10, -65174.49, -98426.84, -103402.54, -103359.47, -155705.22, 0.000, 0.000, 0.000, 03:41:48.682
149, -86044.40, -88002.44, -103276.48, -96492.12, -107210.18, -109147.99, -119339.85, -140764.94, -80839.44, -76191.20, -80448.10, -65174.49, -98426.84, -103402.54, -103359.47, -155705.22, 0.000, 0.000, 0.000, 03:41:48.685
150, -86044.40, -88002.44, -103276.48, -96492.12, -107210.18, -109147.99, -119339.85, -140764.94, -80835.13, -76186.41, -80438.36, -65163.27, -98428.70, -103400.95, -103354.17, -155701.64, 0.000, 0.000, 0.000, 03:41:48.690
151, -86021.83, -87996.29, -103269.75, -96491.70, -107196.21, -109155.16, -119342.69, -140782.28, -80835.13, -76186.41, -80438.36, -65163.27, -98428.70, -103400.95, -103354.17, -155701.64, 0.000, 0.000, 0.000, 03:41:48.694
152, -86021.83, -87996.29, -103269.75, -96491.70, -107196.21, -109155.16, -119342.69, -140782.28, -80820.20, -76174.85, -80432.99, -65159.82, -98425.75, -103403.26, -103360.85, -155705.83, 0.000, 0.000, 0.000, 03:41:48.698
153, -86030.01, -87986.97, -103261.73, -96476.38, -107210.34, -109149.47, -119341.59, -140766.70, -80820.20, -76174.85, -80432.99, -65159.82, -98425.75, -103403.26, -103360.85, -155705.83, 0.000, 0.000, 0.000, 03:41:48.702
154, -86030.01, -87986.97, -103261.73, -96476.38, -107210.34, -109149.47, -119341.59, -140766.70, -80821.67, -76172.40, -80424.21, -65147.55, -98430.98, -103401.20, -103354.55, -155701.42, 0.020, 0.950, 0.296, 03:41:48.706
155, -86005.91, -87978.63, -103251.96, -96473.08, -107196.10, -109153.69, -119341.80, -140780.16, -80821.67, -76172.40, -80424.21, -65147.55, -98430.98, -103401.20, -103354.55, -155701.42, 0.000, 0.000, 0.000, 03:41:48.710
156, -86005.91, -87978.63, -103251.96, -96473.08, -107196.10, -109153.69, -119341.80, -140780.16, -80800.80, -76156.15, -80417.23, -65143.38, -98423.38, -103402.48, -103360.84, -155705.00, 0.000, 0.000, 0.000, 03:41:48.713
157, -86011.84, -87970.07, -103244.80, -96459.27, -107208.80, -109148.99, -119341.01, -140767.03, -80800.80, -76156.15, -80417.23, -65143.38, -98423.38, -103402.48, -103360.84, -155705.00, 0.000, 0.000, 0.000, 03:41:48.718
158, -86011.84, -87970.07, -103244.80, -96459.27, -107208.80, -109148.99, -119341.01, -140767.03, -80807.77, -76157.46, -80409.91, -65131.26, -98432.81, -103401.20, -103355.13, -155701.08, 0.000, 0.000, 0.000, 03:41:48.722
159, -85992.23, -87962.20, -103236.29, -96455.51, -107198.31, -109153.04, -119341.57, -140778.50, -80807.77, -76157.46, -80409.91, -65131.26, -98432.81, -103401.20, -103355.13, -155701.08, 0.000, 0.000, 0.000, 03:41:48.727
160, -85992.23, -87962.20, -103236.29, -96455.51, -107198.31, -109153.04, -119341.57, -140778.50, -80781.99, -76139.16, -80401.99, -65127.37, -98421.86, -103401.98, -103361.57, -155704.86, 0.000, 0.000, 0.000, 03:41:48.731
161, -85991.80, -87951.61, -103227.59, -96441.41, -107204.87, -109147.14, -119339.76, -140767.84, -80781.99, -76139.16, -80401.99, -65127.37, -98421.86, -103401.98, -103361.57, -155704.86, 0.000, 0.000, 0.000, 03:41:48.734
162, -85991.80, -87951.61, -103227.59, -96441.41, -107204.87, -109147.14, -119339.76, -140767.84, -80789.06, -76140.43, -80392.43, -65112.20, -98431.02, -103396.91, -103352.81, -155697.48, 0.000, 0.000, 0.000, 03:41:48.738
163, -85976.43, -87943.83, -103218.84, -96435.68, -107196.95, -109150.13, -119339.67, -140774.86, -80789.06, -76140.43, -80392.43, -65112.20, -98431.02, -103396.91, -103352.81, -155697.48, 0.000, 0.000, 0.000, 03:41:48.741
164, -85976.43, -87943.83, -103218.84, -96435.68, -107196.95, -109150.13, -119339.67, -140774.86, -80764.34, -76125.19, -80387.58, -65112.84, -98422.04, -103401.98, -103363.02, -155705.53, 0.022, 0.952, 0.304, 03:41:48.745
165, -85974.98, -87936.70, -103213.65, -96426.54, -107203.57, -109148.66, -119341.86, -140771.33, -80764.34, -76125.19, -80387.58, -65112.84, -98422.04, -103401.98, -103363.02, -155705.53, 0.000, 0.000, 0.000, 03:41:48.750
166, -85974.98, -87936.70, -103213.65, -96426.54, -107203.57, -109148.66, -119341.86, -140771.33, -80776.85, -76129.59, -80381.07, -65098.96, -98435.07, -103398.88, -103355.98, -155699.72, 0.000, 0.000, 0.000, 03:41:48.754
167, -85966.23, -87931.09, -103206.63, -96420.88, -107203.79, -109152.91, -119343.42, -140775.63, -80776.85, -76129.59, -80381.07, -65098.96, -98435.07, -103398.88, -103355.98, -155699.72, 0.000, 0.000, 0.000, 03:41:48.758
168, -85966.23, -87931.09, -103206.63, -96420.88, -107203.79, -109152.91, -119343.42, -140775.63, -80752.40, -76114.03, -80375.38, -65099.16, -98425.91, -103405.00, -103365.15, -155707.55, 0.000, 0.000, 0.000, 03:41:48.762
169, -85959.73, -87920.92, -103198.41, -96410.47, -107205.55, -109150.59, -119342.93, -140772.52, -80752.40, -76114.03, -80375.38, -65099.16, -98425.91, -103405.00, -103365.15, -155707.55, 0.000, 0.000, 0.000, 03:41:48.766
170, -85959.73, -87920.92, -103198.41, -96410.47, -107205.55, -109150.59, -119342.93, -140772.52, -80761.08, -76112.67, -80362.72, -65078.67, -98434.33, -103396.35, -103351.80, -155695.42, 0.000, 0.000, 0.000, 03:41:48.769
171, -85952.20, -87909.41, -103184.73, -96397.15, -107204.98, -109147.72, -119338.02, -140766.67, -80761.08, -76112.67, -80362.72, -65078.67, -98434.33, -103396.35, -103351.80, -155695.42, 0.000, 0.000, 0.000, 03:41:48.773
172, -85952.20, -87909.41, -103184.73, -96397.15, -107204.98, -109147.72, -119338.02, -140766.67, -80733.05, -76094.12, -80354.16, -65076.05, -98422.02, -103399.81, -103358.11, -155700.50, 0.000, 0.000, 0.000, 03:41:48.778
173, -85938.09, -87899.06, -103177.13, -96388.45, -107200.08, -109146.29, -119337.50, -140767.50, -80733.05, -76094.12, -80354.16, -65076.05, -98422.02, -103399.81, -103358.11, -155700.50, 0.000, 0.000, 0.000, 03:41:48.782
174, -85938.09, -87899.06, -103177.13, -96388.45, -107200.08, -109146.29, -119337.50, -140767.50, -80744.38, -76096.38, -80347.34, -65062.02, -98434.55, -103395.86, -103351.63, -155694.47, 0.020, 0.956, 0.296, 03:41:48.786
175, -85939.73, -87895.37, -103171.71, -96380.80, -107208.33, -109148.70, -119339.83, -140765.45, -80744.38, -76096.38, -80347.34, -65062.02, -98434.55, -103395.86, -103351.63, -155694.47, 0.000, 0.000, 0.000, 03:41:48.789
176, -85939.73, -87895.37, -103171.71, -96380.80, -107208.33, -109148.70, -119339.83, -140765.45, -80718.41, -76079.79, -80340.55, -65061.61, -98423.60, -103400.30, -103359.09, -155700.92, 0.000, 0.000, 0.000, 03:41:48.793
177, -85919.30, -87882.63, -103160.09, -96371.95, -107195.32, -109145.87, -119337.50, -140769.69, -80718.41, -76079.79, -80340.55, -65061.61, -98423.60, -103400.30, -103359.09, -155700.92, 0.000, 0.000, 0.000, 03:41:48.797
178, -85919.30, -87882.63, -103160.09, -96371.95, -107195.32, -109145.87, -119337.50, -140769.69, -80722.36, -76076.30, -80330.36, -65045.36, -98430.66, -103392.73, -103351.31, -155692.69, 0.000, 0.000, 0.000, 03:41:48.801
179, -85922.52, -87875.55, -103151.58, -96359.89, -107204.64, -109143.85, -119336.48, -140760.64, -80722.36, -76076.30, -80330.36, -65045.36, -98430.66, -103392.73, -103351.31, -155692.69, 0.000, 0.000, 0.000, 03:41:48.806
180, -85922.52, -87875.55, -103151.58, -96359.89, -107204.64, -109143.85, -119336.48, -140760.64, -80700.75, -76062.80, -80325.22, -65045.83, -98422.77, -103398.83, -103359.36, -155700.41, 0.000, 0.000, 0.000, 03:41:48.810
181, -85901.75, -87867.32, -103145.59, -96357.18, -107194.25, -109146.78, -119338.91, -140773.56, -80700.75, -76062.80, -80325.22, -65045.83, -98422.77, -103398.83, -103359.36, -155700.41, 0.000, 0.000, 0.000, 03:41:48.815
182, -85901.75, -87867.32, -103145.59, -96357.18, -107194.25, -109146.78, -119338.91, -140773.56, -80703.81, -76058.98, -80317.48, -65032.20, -98429.46, -103393.40, -103354.80, -155694.95, 0.000, 0.000, 0.000, 03:41:48.817
183, -85906.18, -87859.14, -103135.86, -96342.77, -107206.31, -109142.52, -119336.52, -140760.44, -80703.81, -76058.98, -80317.48, -65032.20, -98429.46, -103393.40, -103354.80, -155694.95, 0.000, 0.000, 0.000, 03:41:48.822
184, -85906.18, -87859.14, -103135.86, -96342.77, -107206.31, -109142.52, -119336.52, -140760.44, -80684.59, -76046.33, -80310.80, -65029.58, -98422.57, -103397.55, -103359.73, -155699.94, 0.020, 0.948, 0.284, 03:41:48.826
185, -85880.88, -87849.48, -103127.93, -96339.62, -107190.76, -109145.11, -119337.30, -140773.72, -80684.59, -76046.33, -80310.80, -65029.58, -98422.57, -103397.55, -103359.73, -155699.94, 0.000, 0.000, 0.000, 03:41:48.829
186, -85880.88, -87849.48, -103127.93, -96339.62, -107190.76, -109145.11, -119337.30, -140773.72, -80683.58, -76040.99, -80302.98, -65017.76, -98427.24, -103393.27, -103357.44, -155696.13, 0.000, 0.000, 0.000, 03:41:48.834
187, -85890.95, -87843.00, -103120.22, -96325.66, -107205.02, -109141.48, -119336.56, -140760.19, -80683.58, -76040.99, -80302.98, -65017.76, -98427.24, -103393.27, -103357.44, -155696.13, 0.000, 0.000, 0.000, 03:41:48.838
188, -85890.95, -87843.00, -103120.22, -96325.66, -107205.02, -109141.48, -119336.56, -140760.19, -80666.70, -76029.86, -80294.26, -65012.37, -98421.81, -103394.79, -103358.84, -155697.94, 0.000, 0.000, 0.000, 03:41:48.842
189, -85860.67, -87830.44, -103108.52, -96320.41, -107183.61, -109141.89, -119334.71, -140773.00, -80666.70, -76029.86, -80294.26, -65012.37, -98421.81, -103394.79, -103358.84, -155697.94, 0.000, 0.000, 0.000, 03:41:48.845
190, -85860.67, -87830.44, -103108.52, -96320.41, -107183.61, -109141.89, -119334.71, -140773.00, -80662.93, -76024.16, -80289.77, -65005.29, -98425.75, -103394.05, -103361.77, -155698.92, 0.000, 0.000, 0.000, 03:41:48.849
191, -85878.08, -87830.69, -103108.08, -96313.22, -107207.23, -109144.50, -119341.15, -140765.25, -80662.93, -76024.16, -80289.77, -65005.29, -98425.75, -103394.05, -103361.77, -155698.92, 0.000, 0.000, 0.000, 03:41:48.854
192, -85878.08, -87830.69, -103108.08, -96313.22, -107207.23, -109144.50, -119341.15, -140765.25, -80656.96, -76020.43, -80286.28, -65003.27, -98428.12, -103399.70, -103366.13, -155704.09, 0.000, 0.000, 0.000, 03:41:48.857
193, -85849.05, -87821.38, -103099.92, -96311.34, -107189.71, -109148.44, -119342.09, -140781.70, -80656.96, -76020.43, -80286.28, -65003.27, -98428.12, -103399.70, -103366.13, -155704.09, 0.000, 0.000, 0.000, 03:41:48.862
194, -85849.05, -87821.38, -103099.92, -96311.34, -107189.71, -109148.44, -119342.09, -140781.70, -80646.74, -76010.01, -80280.31, -64996.25, -98427.65, -103398.74, -103369.70, -155705.13, 0.026, 0.954, 0.282, 03:41:48.867
195, -85860.27, -87814.30, -103093.39, -96297.30, -107207.19, -109144.19, -119342.11, -140766.78, -80646.74, -76010.01, -80280.31, -64996.25, -98427.65, -103398.74, -103369.70, -155705.13, 0.000, 0.000, 0.000, 03:41:48.870
196, -85860.27, -87814.30, -103093.39, -96297.30, -107207.19, -109144.19, -119342.11, -140766.78, -80640.46, -76003.35, -80271.70, -64986.96, -98428.05, -103398.34, -103366.84, -155703.52, 0.000, 0.000, 0.000, 03:41:48.874
197, -85831.26, -87804.89, -103084.09, -96294.46, -107189.04, -109147.81, -119342.27, -140782.75, -80640.46, -76003.35, -80271.70, -64986.96, -98428.05, -103398.34, -103366.84, -155703.52, 0.000, 0.000, 0.000, 03:41:48.877
198, -85831.26, -87804.89, -103084.09, -96294.46, -107189.04, -109147.81, -119342.27, -140782.75, -80628.91, -75993.96, -80269.34, -64985.04, -98427.94, -103401.94, -103375.48, -155709.41, 0.000, 0.000, 0.000, 03:41:48.882
199, -85843.95, -87800.58, -103080.61, -96283.47, -107207.12, -109146.76, -119345.30, -140770.36, -80628.91, -75993.96, -80269.34, -64985.04, -98427.94, -103401.94, -103375.48, -155709.41, 0.000, 0.000, 0.000, 03:41:48.886
200, -85843.95, -87800.58, -103080.61, -96283.47, -107207.12, -109146.76, -119345.30, -140770.36, -80626.74, -75990.38, -80260.17, -64974.21, -98431.87, -103400.35, -103370.94, -155706.14, 0.000, 0.000, 0.000, 03:41:48.890
201, -85817.93, -87791.26, -103071.06, -96279.84, -107189.46, -109149.69, -119344.88, -140783.78, -80626.74, -75990.38, -80260.17, -64974.21, -98431.87, -103400.35, -103370.94, -155706.14, 0.000, 0.000, 0.000, 03:41:48.895
202, -85817.93, -87791.26, -103071.06, -96279.84, -107189.46, -109149.69, -119344.88, -140783.78, -80609.10, -75977.17, -80255.95, -64972.59, -98427.09, -103403.39, -103379.66, -155712.03, 0.000, 0.000, 0.000, 03:41:48.897
203, -85825.82, -87784.35, -103065.12, -96267.38, -107203.90, -109146.45, -119346.04, -140771.59, -80609.10, -75977.17, -80255.95, -64972.59, -98427.09, -103403.39, -103379.66, -155712.03, 0.018, 0.948, 0.278, 03:41:48.902
204, -85825.82, -87784.35, -103065.12, -96267.38, -107203.90, -109146.45, -119346.04, -140771.59, -80608.97, -75972.84, -80244.21, -64956.89, -98430.69, -103397.36, -103370.18, -155704.03, 0.000, 0.000, 0.000, 03:41:48.905
205, -85798.82, -87771.38, -103051.28, -96258.56, -107186.34, -109145.13, -119341.19, -140778.03, -80608.97, -75972.84, -80244.21, -64956.89, -98430.69, -103397.36, -103370.18, -155704.03, 0.000, 0.000, 0.000, 03:41:48.910
206, -85798.82, -87771.38, -103051.28, -96258.56, -107186.34, -109145.13, -119341.19, -140778.03, -80588.92, -75959.02, -80240.55, -64957.07, -98424.54, -103402.38, -103380.70, -155711.97, 0.000, 0.000, 0.000, 03:41:48.913
207, -85809.35, -87769.76, -103051.62, -96252.80, -107204.38, -109147.95, -119348.19, -140774.56, -80588.92, -75959.02, -80240.55, -64957.07, -98424.54, -103402.38, -103380.70, -155711.97, 0.000, 0.000, 0.000, 03:41:48.917
208, -85809.35, -87769.76, -103051.62, -96252.80, -107204.38, -109147.95, -119348.19, -140774.56, -80599.20, -75963.32, -80234.83, -64945.90, -98436.84, -103401.70, -103375.67, -155708.73, 0.000, 0.000, 0.000, 03:41:48.922
209, -85789.81, -87760.37, -103040.24, -96245.73, -107193.93, -109149.33, -119345.91, -140781.16, -80599.20, -75963.32, -80234.83, -64945.90, -98436.84, -103401.70, -103375.67, -155708.73, 0.000, 0.000, 0.000, 03:41:48.925
210, -85789.81, -87760.37, -103040.24, -96245.73, -107193.93, -109149.33, -119345.91, -140781.16, -80570.10, -75942.10, -80224.52, -64940.27, -98422.55, -103400.66, -103379.70, -155710.45, 0.000, 0.000, 0.000, 03:41:48.929
211, -85786.82, -87748.01, -103029.85, -96230.83, -107197.24, -109142.70, -119342.73, -140770.92, -80570.10, -75942.10, -80224.52, -64940.27, -98422.55, -103400.66, -103379.70, -155710.45, 0.000, 0.000, 0.000, 03:41:48.933
212, -85786.82, -87748.01, -103029.85, -96230.83, -107197.24, -109142.70, -119342.73, -140770.92, -80579.91, -75944.72, -80215.71, -64925.40, -98433.91, -103396.88, -103371.45, -155703.83, 0.000, 0.000, 0.000, 03:41:48.938
213, -85775.04, -87740.80, -103021.13, -96224.50, -107192.75, -109145.40, -119342.89, -140776.84, -80579.91, -75944.72, -80215.71, -64925.40, -98433.91, -103396.88, -103371.45, -155703.83, 0.026, 0.946, 0.296, 03:41:48.941
214, -85775.04, -87740.80, -103021.13, -96224.50, -107192.75, -109145.40, -119342.89, -140776.84, -80553.78, -75927.53, -80209.70, -64925.02, -98423.22, -103401.60, -103380.19, -155710.77, 0.000, 0.000, 0.000, 03:41:48.945
215, -85772.23, -87734.44, -103016.51, -96217.26, -107198.29, -109145.95, -119345.75, -140775.75, -80553.78, -75927.53, -80209.70, -64925.02, -98423.22, -103401.60, -103380.19, -155710.77, 0.000, 0.000, 0.000, 03:41:48.950
216, -85772.23, -87734.44, -103016.51, -96217.26, -107198.29, -109145.95, -119345.75, -140775.75, -80567.04, -75932.13, -80203.87, -64911.95, -98437.28, -103399.03, -103374.00, -155705.80, 0.000, 0.000, 0.000, 03:41:48.953
217, -85764.24, -87727.87, -103008.63, -96209.59, -107199.30, -109147.90, -119345.70, -140776.92, -80567.04, -75932.13, -80203.87, -64911.95, -98437.28, -103399.03, -103374.00, -155705.80, 0.000, 0.000, 0.000, 03:41:48.956
218, -85764.24, -87727.87, -103008.63, -96209.59, -107199.30, -109147.90, -119345.70, -140776.92, -80541.87, -75916.05, -80198.88, -64913.15, -98427.49, -103405.42, -103384.08, -155714.45, 0.000, 0.000, 0.000, 03:41:48.961
219, -85755.13, -87719.77, -103002.27, -96202.58, -107198.49, -109148.03, -119347.47, -140778.81, -80541.87, -75916.05, -80198.88, -64913.15, -98427.49, -103405.42, -103384.08, -155714.45, 0.000, 0.000, 0.000, 03:41:48.965
220, -85755.13, -87719.77, -103002.27, -96202.58, -107198.49, -109148.03, -119347.47, -140778.81, -80551.26, -75916.34, -80189.48, -64896.48, -98437.70, -103398.92, -103374.83, -155705.70, 0.000, 0.000, 0.000, 03:41:48.972
221, -85750.81, -87710.68, -102990.60, -96190.39, -107200.48, -109145.80, -119344.09, -140772.06, -80551.26, -75916.34, -80189.48, -64896.48, -98437.70, -103398.92, -103374.83, -155705.70, 0.000, 0.000, 0.000, 03:41:48.975
222, -85750.81, -87710.68, -102990.60, -96190.39, -107200.48, -109145.80, -119344.09, -140772.06, -80524.41, -75898.56, -80182.34, -64895.49, -98426.13, -103403.34, -103382.47, -155712.22, 0.000, 0.000, 0.000, 03:41:48.979
223, -85736.84, -87702.34, -102985.03, -96185.63, -107195.14, -109147.12, -119346.87, -140780.30, -80524.41, -75898.56, -80182.34, -64895.49, -98426.13, -103403.34, -103382.47, -155712.22, 0.016, 0.940, 0.296, 03:41:48.983
224, -85736.84, -87702.34, -102985.03, -96185.63, -107195.14, -109147.12, -119346.87, -140780.30, -80533.65, -75899.28, -80175.50, -64881.95, -98437.28, -103399.23, -103377.17, -155706.92, 0.000, 0.000, 0.000, 03:41:48.986
225, -85736.59, -87694.09, -102974.98, -96173.14, -107202.07, -109144.70, -119344.85, -140771.86, -80533.65, -75899.28, -80175.50, -64881.95, -98437.28, -103399.23, -103377.17, -155706.92, 0.000, 0.000, 0.000, 03:41:48.990
226, -85736.59, -87694.09, -102974.98, -96173.14, -107202.07, -109144.70, -119344.85, -140771.86, -80508.09, -75882.90, -80168.22, -64880.03, -98426.62, -103402.88, -103383.45, -155712.28, 0.000, 0.000, 0.000, 03:41:48.993
227, -85715.30, -87685.27, -102968.59, -96168.98, -107191.72, -109146.27, -119346.76, -140782.39, -80508.09, -75882.90, -80168.22, -64880.03, -98426.62, -103402.88, -103383.45, -155712.28, 0.000, 0.000, 0.000, 03:41:48.997
228, -85715.30, -87685.27, -102968.59, -96168.98, -107191.72, -109146.27, -119346.76, -140782.39, -80514.98, -75882.94, -80162.83, -64868.67, -98436.86, -103399.81, -103381.28, -155709.25, 0.000, 0.000, 0.000, 03:41:49.002
229, -85722.83, -87680.28, -102963.02, -96158.48, -107205.09, -109146.13, -119348.25, -140774.59, -80514.98, -75882.94, -80162.83, -64868.67, -98436.86, -103399.81, -103381.28, -155709.25, 0.000, 0.000, 0.000, 03:41:49.005
230, -85722.83, -87680.28, -102963.02, -96158.48, -107205.09, -109146.13, -119348.25, -140774.59, -80494.64, -75870.65, -80157.45, -64868.07, -98430.24, -103405.11, -103388.48, -155715.75, 0.000, 0.000, 0.000, 03:41:49.009
231, -85698.51, -87671.79, -102955.84, -96155.86, -107190.67, -109149.13, -119350.06, -140787.17, -80494.64, -75870.65, -80157.45, -64868.07, -98430.24, -103405.11, -103388.48, -155715.75, 0.000, 0.000, 0.000, 03:41:49.012
232, -85698.51, -87671.79, -102955.84, -96155.86, -107190.67, -109149.13, -119350.06, -140787.17, -80497.77, -75867.85, -80152.13, -64857.83, -98437.86, -103402.48, -103387.81, -155713.58, 0.000, 0.000, 0.000, 03:41:49.018
233, -85707.80, -87665.66, -102948.96, -96143.16, -107205.47, -109146.36, -119350.13, -140775.06, -80497.77, -75867.85, -80152.13, -64857.83, -98437.86, -103402.48, -103387.81, -155713.58, 0.024, 0.942, 0.298, 03:41:49.023
234, -85707.80, -87665.66, -102948.96, -96143.16, -107205.47, -109146.36, -119350.13, -140775.06, -80479.71, -75855.36, -80144.08, -64853.25, -98431.42, -103404.98, -103390.65, -155716.59, 0.000, 0.000, 0.000, 03:41:49.026
235, -85679.62, -87654.82, -102939.41, -96139.52, -107187.72, -109148.30, -119350.47, -140789.36, -80479.71, -75855.36, -80144.08, -64853.25, -98431.42, -103404.98, -103390.65, -155716.59, 0.000, 0.000, 0.000, 03:41:49.030
236, -85679.62, -87654.82, -102939.41, -96139.52, -107187.72, -109148.30, -119350.47, -140789.36, -80476.00, -75848.70, -80137.57, -64843.50, -98435.25, -103402.34, -103391.34, -155715.17, 0.000, 0.000, 0.000, 03:41:49.033
237, -85692.74, -87648.52, -102932.66, -96126.27, -107205.24, -109145.17, -119350.82, -140775.69, -80476.00, -75848.70, -80137.57, -64843.50, -98435.25, -103402.34, -103391.34, -155715.17, 0.000, 0.000, 0.000, 03:41:49.037
238, -85692.74, -87648.52, -102932.66, -96126.27, -107205.24, -109145.17, -119350.82, -140775.69, -80461.92, -75838.33, -80128.25, -64836.42, -98430.84, -103402.67, -103391.27, -155715.52, 0.000, 0.000, 0.000, 03:41:49.040
239, -85657.54, -87634.39, -102920.57, -96119.27, -107182.71, -109144.03, -119347.47, -140787.75, -80461.92, -75838.33, -80128.25, -64836.42, -98430.84, -103402.67, -103391.27, -155715.52, 0.000, 0.000, 0.000, 03:41:49.045
240, -85657.54, -87634.39, -102920.57, -96119.27, -107182.71, -109144.03, -119347.47, -140787.75, -80450.85, -75826.59, -80119.94, -64826.25, -98429.23, -103398.65, -103391.68, -155713.27, 0.000, 0.000, 0.000, 03:41:49.050
241, -85668.40, -87627.51, -102914.18, -96105.50, -107199.63, -109140.48, -119348.01, -140772.67, -80450.85, -75826.59, -80119.94, -64826.25, -98429.23, -103398.65, -103391.68, -155713.27, 0.000, 0.000, 0.000, 03:41:49.053
242, -85668.40, -87627.51, -102914.18, -96105.50, -107199.63, -109140.48, -119348.01, -140772.67, -80443.08, -75819.93, -80112.07, -64818.47, -98429.26, -103399.16, -103390.78, -155712.95, 0.000, 0.000, 0.000, 03:41:49.057
243, -85639.74, -87617.72, -102904.52, -96102.35, -107180.16, -109143.38, -119347.74, -140787.39, -80443.08, -75819.93, -80112.07, -64818.47, -98429.26, -103399.16, -103390.78, -155712.95, 0.014, 0.934, 0.296, 03:41:49.060
244, -85639.74, -87617.72, -102904.52, -96102.35, -107180.16, -109143.38, -119347.74, -140787.39, -80428.34, -75806.03, -80104.31, -64810.73, -98425.12, -103396.95, -103393.80, -155713.28, 0.000, 0.000, 0.000, 03:41:49.065
245, -85646.96, -87606.30, -102893.99, -96084.47, -107192.68, -109135.07, -119344.21, -140768.58, -80428.34, -75806.03, -80104.31, -64810.73, -98425.12, -103396.95, -103393.80, -155713.28, 0.000, 0.000, 0.000, 03:41:49.068
246, -85646.96, -87606.30, -102893.99, -96084.47, -107192.68, -109135.07, -119344.21, -140768.58, -80423.16, -75799.13, -80093.95, -64798.84, -98426.17, -103394.27, -103388.84, -155709.33, 0.000, 0.000, 0.000, 03:41:49.073
247, -85621.41, -87598.77, -102886.28, -96083.24, -107177.46, -109140.03, -119346.02, -140784.77, -80423.16, -75799.13, -80093.95, -64798.84, -98426.17, -103394.27, -103388.84, -155709.33, 0.000, 0.000, 0.000, 03:41:49.078
248, -85621.41, -87598.77, -102886.28, -96083.24, -107177.46, -109140.03, -119346.02, -140784.77, -80408.77, -75787.32, -80091.69, -64797.79, -98423.87, -103397.96, -103399.10, -155716.50, 0.000, 0.000, 0.000, 03:41:49.081
249, -85631.20, -87593.09, -102882.70, -96072.27, -107194.85, -109137.71, -119349.03, -140774.52, -80408.77, -75787.32, -80091.69, -64797.79, -98423.87, -103397.96, -103399.10, -155716.50, 0.000, 0.000, 0.000, 03:41:49.085
250, -85631.20, -87593.09, -102882.70, -96072.27, -107194.85, -109137.71, -119349.03, -140774.52, -80411.59, -75786.88, -80085.18, -64787.94, -98431.34, -103397.38, -103396.20, -155714.42, 0.000, 0.000, 0.000, 03:41:49.088
251, -85605.77, -87583.52, -102873.03, -96068.04, -107179.27, -109140.19, -119348.92, -140787.75, -80411.59, -75786.88, -80085.18, -64787.94, -98431.34, -103397.38, -103396.20, -155714.42, 0.000, 0.000, 0.000, 03:41:49.093
252, -85605.77, -87583.52, -102873.03, -96068.04, -107179.27, -109140.19, -119348.92, -140787.75, -80387.48, -75769.26, -80077.87, -64784.20, -98421.95, -103397.58, -103403.46, -155718.39, 0.000, 0.000, 0.000, 03:41:49.097
253, -85610.62, -87575.80, -102867.15, -96055.97, -107190.45, -109136.37, -119349.82, -140777.30, -80387.48, -75769.26, -80077.87, -64784.20, -98421.95, -103397.58, -103403.46, -155718.39, 0.014, 0.932, 0.292, 03:41:49.101
254, -85610.62, -87575.80, -102867.15, -96055.97, -107190.45, -109136.37, -119349.82, -140777.30, -80394.41, -75771.83, -80072.15, -64774.06, -98432.38, -103396.62, -103400.20, -155716.02, 0.000, 0.000, 0.000, 03:41:49.105
255, -85594.30, -87571.36, -102862.16, -96055.16, -107181.80, -109142.94, -119353.51, -140791.88, -80394.41, -75771.83, -80072.15, -64774.06, -98432.38, -103396.62, -103400.20, -155716.02, 0.000, 0.000, 0.000, 03:41:49.110
0, -85594.30, -87571.36, -102862.16, -96055.16, -107181.80, -109142.94, -119353.51, -140791.88, -80371.35, -75755.76, -80068.75, -64775.27, -98424.20, -103401.49, -103411.95, -155724.58, 0.000, 0.000, 0.000, 03:41:49.113
1, -85589.97, -87559.71, -102852.66, -96040.97, -107186.11, -109136.19, -119351.65, -140780.83, -80371.35, -75755.76, -80068.75, -64775.27, -98424.20, -103401.49, -103411.95, -155724.58, 0.000, 0.000, 0.000, 03:41:49.116
2, -85589.97, -87559.71, -102852.66, -96040.97, -107186.11, -109136.19, -119351.65, -140780.83, -80374.73, -75751.78, -80057.55, -64757.81, -98430.13, -103393.60, -103401.96, -155715.36, 0.000, 0.000, 0.000, 03:41:49.120
3, -85573.41, -87551.11, -102842.66, -96034.53, -107177.88, -109137.26, -119350.60, -140786.86, -80374.73, -75751.78, -80057.55, -64757.81, -98430.13, -103393.60, -103401.96, -155715.36, 0.000, 0.000, 0.000, 03:41:49.125
4, -85573.41, -87551.11, -102842.66, -96034.53, -107177.88, -109137.26, -119350.60, -140786.86, -80349.29, -75733.92, -80053.77, -64759.64, -98420.25, -103399.30, -103414.63, -155724.98, 0.000, 0.000, 0.000, 03:41:49.128
5, -85567.10, -87542.41, -102837.16, -96025.13, -107182.09, -109134.65, -119352.14, -140783.75, -80349.29, -75733.92, -80053.77, -64759.64, -98420.25, -103399.30, -103414.63, -155724.98, 0.000, 0.000, 0.000, 03:41:49.133
6, -85567.10, -87542.41, -102837.16, -96025.13, -107182.09, -109134.65, -119352.14, -140783.75, -80356.17, -75732.31, -80045.04, -64743.52, -98429.01, -103392.75, -103406.52, -155717.05, 0.000, 0.000, 0.000, 03:41:49.138
7, -85553.02, -87532.55, -102826.20, -96015.94, -107176.56, -109133.84, -119350.04, -140784.83, -80356.17, -75732.31, -80045.04, -64743.52, -98429.01, -103392.75, -103406.52, -155717.05, 0.014, 0.934, 0.290, 03:41:49.140
8, -85553.02, -87532.55, -102826.20, -96015.94, -107176.56, -109133.84, -119350.04, -140784.83, -80325.82, -75712.15, -80037.98, -64743.12, -98415.60, -103395.77, -103416.35, -155724.16, 0.000, 0.000, 0.000, 03:41:49.145
9, -85543.19, -87523.02, -102819.45, -96007.53, -107173.62, -109131.36, -119350.78, -140785.31, -80325.82, -75712.15, -80037.98, -64743.12, -98415.60, -103395.77, -103416.35, -155724.16, 0.000, 0.000, 0.000, 03:41:49.148
10, -85543.19, -87523.02, -102819.45, -96007.53, -107173.62, -109131.36, -119350.78, -140785.31, -80334.58, -75713.36, -80030.28, -64729.38, -98426.66, -103390.90, -103410.50, -155718.16, 0.000, 0.000, 0.000, 03:41:49.153
11, -85538.55, -87516.22, -102811.63, -95999.38, -107174.47, -109132.37, -119351.27, -140784.95, -80334.58, -75713.36, -80030.28, -64729.38, -98426.66, -103390.90, -103410.50, -155718.16, 0.000, 0.000, 0.000, 03:41:49.157
12, -85538.55, -87516.22, -102811.63, -95999.38, -107174.47, -109132.37, -119351.27, -140784.95, -80306.75, -75695.32, -80025.08, -64730.74, -98415.47, -103396.30, -103421.16, -155726.91, 0.000, 0.000, 0.000, 03:41:49.161
13, -85522.48, -87506.61, -102803.98, -95992.63, -107167.67, -109131.05, -119352.23, -140789.75, -80306.75, -75695.32, -80025.08, -64730.74, -98415.47, -103396.30, -103421.16, -155726.91, 0.000, 0.000, 0.000, 03:41:49.165
14, -85522.48, -87506.61, -102803.98, -95992.63, -107167.67, -109131.05, -119352.23, -140789.75, -80313.93, -75693.48, -80017.21, -64715.76, -98424.52, -103390.16, -103415.05, -155720.33, 0.000, 0.000, 0.000, 03:41:49.168
15, -85521.21, -87498.90, -102795.02, -95981.96, -107173.51, -109129.84, -119351.45, -140784.88, -80313.93, -75693.48, -80017.21, -64715.76, -98424.52, -103390.16, -103415.05, -155720.33, 0.000, 0.000, 0.000, 03:41:49.172
16, -85521.21, -87498.90, -102795.02, -95981.96, -107173.51, -109129.84, -119351.45, -140784.88, -80287.59, -75676.84, -80011.35, -64716.30, -98414.30, -103395.79, -103424.87, -155728.36, 0.016, 0.938, 0.286, 03:41:49.176
17, -85501.90, -87490.67, -102789.73, -95978.37, -107165.21, -109131.41, -119353.77, -140794.61, -80287.59, -75676.84, -80011.35, -64716.30, -98414.30, -103395.79, -103424.87, -155728.36, 0.000, 0.000, 0.000, 03:41:49.181
18, -85501.90, -87490.67, -102789.73, -95978.37, -107165.21, -109131.41, -119353.77, -140794.61, -80295.91, -75677.44, -80006.97, -64705.37, -98425.21, -103393.09, -103423.26, -155725.83, 0.000, 0.000, 0.000, 03:41:49.185
19, -85508.70, -87487.07, -102785.03, -95970.23, -107177.91, -109132.99, -119356.77, -140789.75, -80295.91, -75677.44, -80006.97, -64705.37, -98425.21, -103393.09, -103423.26, -155725.83, 0.000, 0.000, 0.000, 03:41:49.190
20, -85508.70, -87487.07, -102785.03, -95970.23, -107177.91, -109132.99, -119356.77, -140789.75, -80274.86, -75665.48, -80003.62, -64707.79, -98419.16, -103400.51, -103433.97, -155735.50, 0.000, 0.000, 0.000, 03:41:49.192
21, -85484.91, -87479.23, -102779.64, -95968.04, -107164.32, -109136.16, -119359.88, -140803.69, -80274.86, -75665.48, -80003.62, -64707.79, -98419.16, -103400.51, -103433.97, -155735.50, 0.000, 0.000, 0.000, 03:41:49.197
22, -85484.91, -87479.23, -102779.64, -95968.04, -107164.32, -109136.16, -119359.88, -140803.69, -80279.10, -75663.70, -79999.26, -64698.11, -98427.98, -103397.96, -103433.77, -155733.77, 0.000, 0.000, 0.000, 03:41:49.200
23, -85492.85, -87473.13, -102772.58, -95956.15, -107177.02, -109134.09, -119360.48, -140792.77, -80279.10, -75663.70, -79999.26, -64698.11, -98427.98, -103397.96, -103433.77, -155733.77, 0.000, 0.000, 0.000, 03:41:49.205
24, -85492.85, -87473.13, -102772.58, -95956.15, -107177.02, -109134.09, -119360.48, -140792.77, -80257.20, -75649.70, -79990.95, -64694.55, -98419.48, -103400.02, -103437.84, -155737.41, 0.000, 0.000, 0.000, 03:41:49.208
25, -85464.98, -87462.95, -102764.04, -95952.66, -107159.45, -109135.48, -119361.04, -140806.91, -80257.20, -75649.70, -79990.95, -64694.55, -98419.48, -103400.02, -103437.84, -155737.41, 0.000, 0.000, 0.000, 03:41:49.213
26, -85464.98, -87462.95, -102764.04, -95952.66, -107159.45, -109135.48, -119361.04, -140806.91, -80256.46, -75644.70, -79986.07, -64685.59, -98424.77, -103397.69, -103439.11, -155736.58, 0.010, 0.940, 0.284, 03:41:49.218
27, -85473.02, -87456.07, -102757.42, -95939.25, -107175.47, -109132.08, -119361.02, -140793.05, -80256.46, -75644.70, -79986.07, -64685.59, -98424.77, -103397.69, -103439.11, -155736.58, 0.000, 0.000, 0.000, 03:41:49.220
28, -85473.02, -87456.07, -102757.42, -95939.25, -107175.47, -109132.08, -119361.02, -140793.05, -80240.46, -75633.16, -79978.18, -64680.31, -98419.65, -103399.28, -103441.10, -155738.67, 0.000, 0.000, 0.000, 03:41:49.226
29, -85444.26, -87446.93, -102749.02, -95937.06, -107157.84, -109135.27, -119361.89, -140808.63, -80240.46, -75633.16, -79978.18, -64680.31, -98419.65, -103399.28, -103441.10, -155738.67, 0.000, 0.000, 0.000, 03:41:49.228
30, -85444.26, -87446.93, -102749.02, -95937.06, -107157.84, -109135.27, -119361.89, -140808.63, -80235.92, -75625.47, -79973.69, -64673.43, -98422.75, -103398.65, -103444.72, -155739.84, 0.000, 0.000, 0.000, 03:41:49.233
31, -85457.49, -87441.81, -102744.15, -95924.95, -107176.25, -109133.08, -119364.03, -140796.38, -80235.92, -75625.47, -79973.69, -64673.43, -98422.75, -103398.65, -103444.72, -155739.84, 0.000, 0.000, 0.000, 03:41:49.237
32, -85457.49, -87441.81, -102744.15, -95924.95, -107176.25, -109133.08, -119364.03, -140796.38, -80225.82, -75617.89, -79966.49, -64667.28, -98422.10, -103400.58, -103445.61, -155741.36, 0.000, 0.000, 0.000, 03:41:49.240
33, -85428.61, -87431.82, -102734.85, -95922.17, -107156.30, -109136.19, -119364.03, -140811.53, -80225.82, -75617.89, -79966.49, -64667.28, -98422.10, -103400.58, -103445.61, -155741.36, 0.000, 0.000, 0.000, 03:41:49.246
34, -85428.61, -87431.82, -102734.85, -95922.17, -107156.30, -109136.19, -119364.03, -140811.53, -80215.98, -75608.64, -79961.75, -64661.92, -98422.15, -103400.82, -103450.91, -155743.80, 0.000, 0.000, 0.000, 03:41:49.249
35, -85440.48, -87426.86, -102730.29, -95909.77, -107173.98, -109133.26, -119365.76, -140798.27, -80215.98, -75608.64, -79961.75, -64661.92, -98422.15, -103400.82, -103450.91, -155743.80, 0.000, 0.000, 0.000, 03:41:49.252
36, -85440.48, -87426.86, -102730.29, -95909.77, -107173.98, -109133.26, -119365.76, -140798.27, -80212.00, -75604.41, -79954.94, -64654.00, -98424.88, -103401.38, -103449.55, -155743.42, 0.010, 0.942, 0.286, 03:41:49.257
37, -85411.13, -87416.73, -102720.61, -95906.52, -107155.51, -109136.50, -119365.82, -140813.77, -80212.00, -75604.41, -79954.94, -64654.00, -98424.88, -103401.38, -103449.55, -155743.42, 0.000, 0.000, 0.000, 03:41:49.260
38, -85411.13, -87416.73, -102720.61, -95906.52, -107155.51, -109136.50, -119365.82, -140813.77, -80194.70, -75589.84, -79947.94, -64647.97, -98419.65, -103400.44, -103454.06, -155745.34, 0.000, 0.000, 0.000, 03:41:49.265
39, -85419.87, -87408.02, -102712.52, -95891.46, -107170.55, -109130.78, -119364.52, -140798.08, -80194.70, -75589.84, -79947.94, -64647.97, -98419.65, -103400.44, -103454.06, -155745.34, 0.000, 0.000, 0.000, 03:41:49.269
40, -85419.87, -87408.02, -102712.52, -95891.46, -107170.55, -109130.78, -119364.52, -140798.08, -80194.26, -75586.91, -79938.71, -64636.21, -98423.83, -103398.23, -103448.61, -155741.20, 0.000, 0.000, 0.000, 03:41:49.272
41, -85393.83, -87398.67, -102703.09, -95887.59, -107155.04, -109133.93, -119364.19, -140811.38, -80194.26, -75586.91, -79938.71, -64636.21, -98423.83, -103398.23, -103448.61, -155741.20, 0.000, 0.000, 0.000, 03:41:49.276
42, -85393.83, -87398.67, -102703.09, -95887.59, -107155.04, -109133.93, -119364.19, -140811.38, -80173.45, -75571.00, -79931.98, -64632.37, -98416.41, -103399.26, -103455.18, -155745.16, 0.000, 0.000, 0.000, 03:41:49.281
43, -85400.11, -87389.82, -102695.63, -95873.80, -107167.60, -109129.20, -119363.85, -140798.08, -80173.45, -75571.00, -79931.98, -64632.37, -98416.41, -103399.26, -103455.18, -155745.16, 0.000, 0.000, 0.000, 03:41:49.286
44, -85400.11, -87389.82, -102695.63, -95873.80, -107167.60, -109129.20, -119363.85, -140798.08, -80176.45, -75569.16, -79922.15, -64618.20, -98422.62, -103395.27, -103447.42, -155739.00, 0.000, 0.000, 0.000, 03:41:49.289
45, -85378.90, -87379.98, -102684.07, -95867.73, -107153.03, -109131.13, -119361.80, -140807.30, -80176.45, -75569.16, -79922.15, -64618.20, -98422.62, -103395.27, -103447.42, -155739.00, 0.000, 0.000, 0.000, 03:41:49.293
46, -85378.90, -87379.98, -102684.07, -95867.73, -107153.03, -109131.13, -119361.80, -140807.30, -80154.23, -75553.63, -79916.73, -64617.04, -98414.88, -103399.16, -103456.55, -155745.41, 0.010, 0.942, 0.298, 03:41:49.297
47, -85383.73, -87374.51, -102680.87, -95858.31, -107165.37, -109130.31, -119365.02, -140800.86, -80154.23, -75553.63, -79916.73, -64617.04, -98414.88, -103399.16, -103456.55, -155745.41, 0.000, 0.000, 0.000, 03:41:49.299
48, -85383.73, -87374.51, -102680.87, -95858.31, -107165.37, -109130.31, -119365.02, -140800.86, -80163.95, -75556.43, -79910.75, -64605.05, -98426.73, -103397.84, -103451.11, -155741.56, 0.000, 0.000, 0.000, 03:41:49.304
49, -85364.10, -87365.70, -102670.73, -95852.21, -107155.65, -109132.34, -119364.03, -140808.16, -80163.95, -75556.43, -79910.75, -64605.05, -98426.73, -103397.84, -103451.11, -155741.56, 0.000, 0.000, 0.000, 03:41:49.307
50, -85364.10, -87365.70, -102670.73, -95852.21, -107155.65, -109132.34, -119364.03, -140808.16, -80136.90, -75537.45, -79903.86, -64603.09, -98414.70, -103400.13, -103459.07, -155747.11, 0.000, 0.000, 0.000, 03:41:49.313
51, -85364.46, -87359.40, -102666.03, -95843.59, -107164.14, -109131.47, -119366.56, -140805.06, -80136.90, -75537.45, -79903.86, -64603.09, -98414.70, -103400.13, -103459.07, -155747.11, 0.000, 0.000, 0.000, 03:41:49.317
52, -85364.46, -87359.40, -102666.03, -95843.59, -107164.14, -109131.47, -119366.56, -140805.06, -80149.35, -75542.70, -79898.56, -64591.51, -98428.70, -103399.03, -103454.22, -155743.63, 0.000, 0.000, 0.000, 03:41:49.321
53, -85352.62, -87351.33, -102656.75, -95836.48, -107160.05, -109133.41, -119366.13, -140809.77, -80149.35, -75542.70, -79898.56, -64591.51, -98428.70, -103399.03, -103454.22, -155743.63, 0.000, 0.000, 0.000, 03:41:49.325
54, -85352.62, -87351.33, -102656.75, -95836.48, -107160.05, -109133.41, -119366.13, -140809.77, -80120.92, -75523.79, -79891.37, -64590.71, -98416.18, -103402.63, -103462.84, -155750.33, 0.000, 0.000, 0.000, 03:41:49.328
55, -85347.20, -87343.15, -102650.09, -95828.18, -107162.06, -109132.12, -119367.48, -140808.83, -80120.92, -75523.79, -79891.37, -64590.71, -98416.18, -103402.63, -103462.84, -155750.33, 0.000, 0.000, 0.000, 03:41:49.331
56, -85347.20, -87343.15, -102650.09, -95828.18, -107162.06, -109132.12, -119367.48, -140808.83, -80130.30, -75524.53, -79882.52, -64575.11, -98426.71, -103397.11, -103454.45, -155742.75, 0.022, 0.942, 0.308, 03:41:49.336
57, -85338.82, -87334.84, -102639.95, -95818.75, -107160.88, -109132.19, -119365.89, -140808.83, -80130.30, -75524.53, -79882.52, -64575.11, -98426.71, -103397.11, -103454.45, -155742.75, 0.000, 0.000, 0.000, 03:41:49.341
58, -85338.82, -87334.84, -102639.95, -95818.75, -107160.88, -109132.19, -119365.89, -140808.83, -80103.95, -75507.72, -79877.69, -64576.69, -98416.25, -103403.44, -103464.97, -155751.53, 0.000, 0.000, 0.000, 03:41:49.344
59, -85325.79, -87325.83, -102633.46, -95811.51, -107157.10, -109131.61, -119367.19, -140811.53, -80103.95, -75507.72, -79877.69, -64576.69, -98416.25, -103403.44, -103464.97, -155751.53, 0.000, 0.000, 0.000, 03:41:49.349
60, -85325.79, -87325.83, -102633.46, -95811.51, -107157.10, -109131.61, -119367.19, -140811.53, -80113.66, -75509.27, -79870.70, -64562.74, -98427.94, -103399.23, -103459.02, -155745.86, 0.000, 0.000, 0.000, 03:41:49.352
61, -85326.80, -87321.89, -102627.80, -95804.67, -107164.32, -109134.49, -119369.58, -140810.94, -80113.66, -75509.27, -79870.70, -64562.74, -98427.94, -103399.23, -103459.02, -155745.86, 0.000, 0.000, 0.000, 03:41:49.356
62, -85326.80, -87321.89, -102627.80, -95804.67, -107164.32, -109134.49, -119369.58, -140810.94, -80088.45, -75494.24, -79865.77, -64564.40, -98418.57, -103405.83, -103469.30, -155754.75, 0.000, 0.000, 0.000, 03:41:49.362
63, -85310.13, -87313.66, -102621.80, -95799.71, -107157.27, -109135.90, -119371.77, -140818.17, -80088.45, -75494.24, -79865.77, -64564.40, -98418.57, -103405.83, -103469.30, -155754.75, 0.000, 0.000, 0.000, 03:41:49.365
64, -85310.13, -87313.66, -102621.80, -95799.71, -107157.27, -109135.90, -119371.77, -140818.17, -80097.92, -75496.14, -79860.88, -64552.84, -98430.64, -103403.10, -103466.09, -155751.17, 0.000, 0.000, 0.000, 03:41:49.368
65, -85313.61, -87307.97, -102614.42, -95789.76, -107166.84, -109135.79, -119372.33, -140811.31, -80097.92, -75496.14, -79860.88, -64552.84, -98430.64, -103403.10, -103466.09, -155751.17, 0.000, 0.000, 0.000, 03:41:49.373
66, -85313.61, -87307.97, -102614.42, -95789.76, -107166.84, -109135.79, -119372.33, -140811.31, -80073.47, -75480.59, -79854.24, -64551.97, -98420.70, -103407.48, -103473.30, -155757.55, 0.022, 0.940, 0.304, 03:41:49.377
67, -85288.60, -87297.23, -102605.59, -95783.66, -107152.90, -109135.07, -119371.45, -140819.66, -80073.47, -75480.59, -79854.24, -64551.97, -98420.70, -103407.48, -103473.30, -155757.55, 0.000, 0.000, 0.000, 03:41:49.380
68, -85288.60, -87297.23, -102605.59, -95783.66, -107152.90, -109135.07, -119371.45, -140819.66, -80075.63, -75475.60, -79844.92, -64536.61, -98426.06, -103400.28, -103466.83, -155750.23, 0.000, 0.000, 0.000, 03:41:49.384
69, -85292.73, -87288.45, -102595.51, -95768.86, -107162.73, -109130.84, -119368.50, -140806.31, -80075.63, -75475.60, -79844.92, -64536.61, -98426.06, -103400.28, -103466.83, -155750.23, 0.000, 0.000, 0.000, 03:41:49.387
70, -85292.73, -87288.45, -102595.51, -95768.86, -107162.73, -109130.84, -119368.50, -140806.31, -80051.98, -75459.09, -79834.86, -64531.32, -98415.69, -103401.42, -103469.09, -155752.25, 0.000, 0.000, 0.000, 03:41:49.392
71, -85263.30, -87274.17, -102582.84, -95760.86, -107143.38, -109128.61, -119365.15, -140815.30, -80051.98, -75459.09, -79834.86, -64531.32, -98415.69, -103401.42, -103469.09, -155752.25, 0.000, 0.000, 0.000, 03:41:49.396
72, -85263.30, -87274.17, -102582.84, -95760.86, -107143.38, -109128.61, -119365.15, -140815.30, -80049.44, -75451.66, -79825.01, -64516.61, -98418.46, -103394.79, -103463.96, -155745.88, 0.000, 0.000, 0.000, 03:41:49.401
73, -85272.20, -87266.95, -102575.03, -95746.80, -107158.35, -109125.46, -119364.50, -140802.47, -80049.44, -75451.66, -79825.01, -64516.61, -98418.46, -103394.79, -103463.96, -155745.88, 0.000, 0.000, 0.000, 03:41:49.405
74, -85272.20, -87266.95, -102575.03, -95746.80, -107158.35, -109125.46, -119364.50, -140802.47, -80033.03, -75441.60, -79817.20, -64512.43, -98413.72, -103398.02, -103466.60, -155748.94, 0.000, 0.000, 0.000, 03:41:49.408
75, -85245.02, -87257.25, -102566.52, -95743.52, -107141.16, -109128.43, -119364.70, -140816.09, -80033.03, -75441.60, -79817.20, -64512.43, -98413.72, -103398.02, -103466.60, -155748.94, 0.016, 0.940, 0.304, 03:41:49.412
76, -85245.02, -87257.25, -102566.52, -95743.52, -107141.16, -109128.43, -119364.70, -140816.09, -80031.20, -75436.82, -79812.17, -64504.52, -98418.86, -103397.16, -103468.39, -155749.03, 0.000, 0.000, 0.000, 03:41:49.417
77, -85260.39, -87253.43, -102561.98, -95732.07, -107161.05, -109127.83, -119367.23, -140803.88, -80031.20, -75436.82, -79812.17, -64504.52, -98418.86, -103397.16, -103468.39, -155749.03, 0.000, 0.000, 0.000, 03:41:49.420
78, -85260.39, -87253.43, -102561.98, -95732.07, -107161.05, -109127.83, -119367.23, -140803.88, -80021.74, -75430.50, -79806.09, -64500.14, -98418.73, -103400.98, -103470.18, -155751.94, 0.000, 0.000, 0.000, 03:41:49.424
79, -85233.37, -87244.94, -102553.40, -95730.17, -107143.89, -109132.32, -119368.30, -140819.94, -80021.74, -75430.50, -79806.09, -64500.14, -98418.73, -103400.98, -103470.18, -155751.94, 0.000, 0.000, 0.000, 03:41:49.430
80, -85233.37, -87244.94, -102553.40, -95730.17, -107143.89, -109132.32, -119368.30, -140819.94, -80015.04, -75422.09, -79800.82, -64493.16, -98420.36, -103400.75, -103473.13, -155752.94, 0.000, 0.000, 0.000, 03:41:49.433
81, -85245.80, -87239.48, -102547.66, -95717.01, -107163.05, -109129.35, -119369.06, -140804.86, -80015.04, -75422.09, -79800.82, -64493.16, -98420.36, -103400.75, -103473.13, -155752.94, 0.000, 0.000, 0.000, 03:41:49.437
82, -85245.80, -87239.48, -102547.66, -95717.01, -107163.05, -109129.35, -119369.06, -140804.86, -80010.41, -75417.51, -79793.89, -64485.59, -98422.48, -103402.50, -103471.70, -155753.16, 0.000, 0.000, 0.000, 03:41:49.440
83, -85218.02, -87230.45, -102538.67, -95714.62, -107146.08, -109133.64, -119369.62, -140821.13, -80010.41, -75417.51, -79793.89, -64485.59, -98422.48, -103402.50, -103471.70, -155753.16, 0.000, 0.000, 0.000, 03:41:49.444
84, -85218.02, -87230.45, -102538.67, -95714.62, -107146.08, -109133.64, -119369.62, -140821.13, -79997.25, -75405.80, -79787.70, -64479.42, -98419.94, -103402.32, -103475.74, -155754.92, 0.000, 0.000, 0.000, 03:41:49.448
85, -85228.67, -87222.72, -102531.52, -95699.80, -107162.46, -109129.02, -119368.86, -140805.61, -79997.25, -75405.80, -79787.70, -64479.42, -98419.94, -103402.32, -103475.74, -155754.92, 0.020, 0.948, 0.300, 03:41:49.452
86, -85228.67, -87222.72, -102531.52, -95699.80, -107162.46, -109129.02, -119368.86, -140805.61, -79994.52, -75401.95, -79777.53, -64467.66, -98422.75, -103400.30, -103469.80, -155750.86, 0.000, 0.000, 0.000, 03:41:49.458
87, -85202.30, -87212.50, -102520.54, -95695.10, -107144.67, -109131.59, -119367.43, -140819.30, -79994.52, -75401.95, -79777.53, -64467.66, -98422.75, -103400.30, -103469.80, -155750.86, 0.000, 0.000, 0.000, 03:41:49.460
88, -85202.30, -87212.50, -102520.54, -95695.10, -107144.67, -109131.59, -119367.43, -140819.30, -79975.26, -75387.00, -79769.71, -64462.50, -98416.07, -103400.26, -103474.52, -155753.30, 0.000, 0.000, 0.000, 03:41:49.463
89, -85210.30, -87203.52, -102511.80, -95680.13, -107157.81, -109126.27, -119366.18, -140804.67, -79975.26, -75387.00, -79769.71, -64462.50, -98416.07, -103400.26, -103474.52, -155753.30, 0.000, 0.000, 0.000, 03:41:49.470
90, -85210.30, -87203.52, -102511.80, -95680.13, -107157.81, -109126.27, -119366.18, -140804.67, -79978.02, -75385.73, -79761.13, -64450.07, -98422.41, -103397.89, -103467.83, -155748.36, 0.000, 0.000, 0.000, 03:41:49.471
91, -85188.06, -87197.04, -102504.31, -95677.94, -107145.74, -109131.78, -119367.48, -140818.33, -79978.02, -75385.73, -79761.13, -64450.07, -98422.41, -103397.89, -103467.83, -155748.36, 0.000, 0.000, 0.000, 03:41:49.476
92, -85188.06, -87197.04, -102504.31, -95677.94, -107145.74, -109131.78, -119367.48, -140818.33, -79960.14, -75373.37, -79758.48, -64451.07, -98417.92, -103404.02, -103478.74, -155757.05, 0.000, 0.000, 0.000, 03:41:49.480
93, -85195.23, -87191.00, -102499.53, -95667.25, -107159.58, -109129.91, -119369.58, -140810.02, -79960.14, -75373.37, -79758.48, -64451.07, -98417.92, -103404.02, -103478.74, -155757.05, 0.000, 0.000, 0.000, 03:41:49.485
94, -85195.23, -87191.00, -102499.53, -95667.25, -107159.58, -109129.91, -119369.58, -140810.02, -79966.31, -75373.73, -79749.77, -64437.42, -98426.75, -103401.09, -103471.32, -155751.53, 0.000, 0.000, 0.000, 03:41:49.488
95, -85176.77, -87182.51, -102488.83, -95661.87, -107149.21, -109132.70, -119368.64, -140819.05, -79966.31, -75373.73, -79749.77, -64437.42, -98426.75, -103401.09, -103471.32, -155751.53, 0.020, 0.948, 0.310, 03:41:49.491
96, -85176.77, -87182.51, -102488.83, -95661.87, -107149.21, -109132.70, -119368.64, -140819.05, -79940.99, -75355.95, -79743.20, -64435.36, -98416.38, -103404.02, -103479.56, -155757.36, 0.000, 0.000, 0.000, 03:41:49.496
97, -85176.37, -87174.30, -102482.74, -95650.53, -107157.39, -109129.75, -119369.06, -140811.63, -79940.99, -75355.95, -79743.20, -64435.36, -98416.38, -103404.02, -103479.56, -155757.36, 0.000, 0.000, 0.000, 03:41:49.501
98, -85176.37, -87174.30, -102482.74, -95650.53, -107157.39, -109129.75, -119369.06, -140811.63, -79950.49, -75358.23, -79735.46, -64421.23, -98427.36, -103400.55, -103471.81, -155751.22, 0.000, 0.000, 0.000, 03:41:49.504
99, -85159.83, -87165.43, -102472.77, -95642.82, -107149.92, -109131.18, -119367.48, -140816.61, -79950.49, -75358.23, -79735.46, -64421.23, -98427.36, -103400.55, -103471.81, -155751.22, 0.000, 0.000, 0.000, 03:41:49.508
100, -85159.83, -87165.43, -102472.77, -95642.82, -107149.92, -109131.18, -119367.48, -140816.61, -79921.99, -75339.75, -79727.55, -64419.65, -98415.13, -103403.57, -103479.55, -155756.78, 0.000, 0.000, 0.000, 03:41:49.513
101, -85156.27, -87155.73, -102464.44, -95631.84, -107151.87, -109128.21, -119367.23, -140811.50, -79921.99, -75339.75, -79727.55, -64419.65, -98415.13, -103403.57, -103479.55, -155756.78, 0.000, 0.000, 0.000, 03:41:49.516
102, -85156.27, -87155.73, -102464.44, -95631.84, -107151.87, -109128.21, -119367.23, -140811.50, -79931.04, -75341.27, -79718.12, -64403.58, -98425.61, -103397.96, -103470.29, -155748.97, 0.000, 0.000, 0.000, 03:41:49.519
103, -85147.45, -87149.05, -102455.90, -95624.27, -107150.73, -109130.51, -119367.21, -140813.38, -79931.04, -75341.27, -79718.12, -64403.58, -98425.61, -103397.96, -103470.29, -155748.97, 0.000, 0.000, 0.000, 03:41:49.525
104, -85147.45, -87149.05, -102455.90, -95624.27, -107150.73, -109130.51, -119367.21, -140813.38, -79905.41, -75325.11, -79713.00, -64404.49, -98415.76, -103404.20, -103480.21, -155757.36, 0.000, 0.000, 0.000, 03:41:49.528
105, -85137.12, -87139.16, -102448.03, -95614.97, -107148.91, -109128.55, -119366.94, -140812.34, -79905.41, -75325.11, -79713.00, -64404.49, -98415.76, -103404.20, -103480.21, -155757.36, 0.022, 0.946, 0.302, 03:41:49.532
106, -85137.12, -87139.16, -102448.03, -95614.97, -107148.91, -109128.55, -119366.94, -140812.34, -79913.67, -75324.33, -79702.56, -64386.84, -98425.05, -103397.11, -103470.11, -155748.00, 0.000, 0.000, 0.000, 03:41:49.536
107, -85132.63, -87131.77, -102438.53, -95605.00, -107152.52, -109128.86, -119365.89, -140809.48, -79913.67, -75324.33, -79702.56, -64386.84, -98425.05, -103397.11, -103470.11, -155748.00, 0.000, 0.000, 0.000, 03:41:49.540
108, -85132.63, -87131.77, -102438.53, -95605.00, -107152.52, -109128.86, -119365.89, -140809.48, -79890.48, -75309.91, -79698.85, -64389.07, -98416.88, -103405.29, -103481.15, -155757.92, 0.000, 0.000, 0.000, 03:41:49.544
109, -85122.80, -87125.87, -102434.53, -95601.83, -107151.58, -109132.59, -119370.65, -140818.27, -79890.48, -75309.91, -79698.85, -64389.07, -98416.88, -103405.29, -103481.15, -155757.92, 0.000, 0.000, 0.000, 03:41:49.547
110, -85122.80, -87125.87, -102434.53, -95601.83, -107151.58, -109132.59, -119370.65, -140818.27, -79902.41, -75313.71, -79693.58, -64376.91, -98430.62, -103403.15, -103476.84, -155754.02, 0.000, 0.000, 0.000, 03:41:49.553
111, -85126.57, -87122.42, -102429.50, -95593.83, -107162.44, -109135.07, -119372.80, -140814.08, -79902.41, -75313.71, -79693.58, -64376.91, -98430.62, -103403.15, -103476.84, -155754.02, 0.000, 0.000, 0.000, 03:41:49.556
112, -85126.57, -87122.42, -102429.50, -95593.83, -107162.44, -109135.07, -119372.80, -140814.08, -79879.14, -75299.78, -79687.84, -64377.00, -98422.22, -103408.80, -103484.82, -155761.17, 0.000, 0.000, 0.000, 03:41:49.560
113, -85104.47, -87111.27, -102420.88, -95586.65, -107150.46, -109134.38, -119372.08, -140820.88, -79879.14, -75299.78, -79687.84, -64377.00, -98422.22, -103408.80, -103484.82, -155761.17, 0.000, 0.000, 0.000, 03:41:49.564
114, -85104.47, -87111.27, -102420.88, -95586.65, -107150.46, -109134.38, -119372.08, -140820.88, -79886.48, -75299.67, -79680.59, -64363.43, -98432.03, -103404.48, -103479.45, -155755.88, 0.000, 0.000, 0.000, 03:41:49.567
115, -85114.21, -87106.38, -102413.27, -95575.85, -107163.67, -109134.53, -119373.16, -140812.94, -79886.48, -75299.67, -79680.59, -64363.43, -98432.03, -103404.48, -103479.45, -155755.88, 0.022, 0.944, 0.290, 03:41:49.572
116, -85114.21, -87106.38, -102413.27, -95575.85, -107163.67, -109134.53, -119373.16, -140812.94, -79865.87, -75287.34, -79673.62, -64361.73, -98424.96, -103409.47, -103484.93, -155761.23, 0.000, 0.000, 0.000, 03:41:49.575
117, -85089.49, -87094.62, -102402.70, -95569.33, -107149.01, -109134.47, -119371.70, -140821.48, -79865.87, -75287.34, -79673.62, -64361.73, -98424.96, -103409.47, -103484.93, -155761.23, 0.000, 0.000, 0.000, 03:41:49.580
118, -85089.49, -87094.62, -102402.70, -95569.33, -107149.01, -109134.47, -119371.70, -140821.48, -79864.63, -75279.80, -79661.59, -64344.03, -98427.60, -103400.71, -103476.39, -155752.06, 0.000, 0.000, 0.000, 03:41:49.584
119, -85093.45, -87083.20, -102390.72, -95551.20, -107160.20, -109127.09, -119366.20, -140804.25, -79864.63, -75279.80, -79661.59, -64344.03, -98427.60, -103400.71, -103476.39, -155752.06, 0.000, 0.000, 0.000, 03:41:49.588
120, -85093.45, -87083.20, -102390.72, -95551.20, -107160.20, -109127.09, -119366.20, -140804.25, -79845.59, -75266.10, -79651.51, -64337.44, -98419.73, -103401.85, -103476.68, -155753.09, 0.000, 0.000, 0.000, 03:41:49.592
121, -85067.38, -87073.36, -102381.55, -95547.29, -107145.20, -109129.82, -119366.36, -140817.69, -79845.59, -75266.10, -79651.51, -64337.44, -98419.73, -103401.85, -103476.68, -155753.09, 0.000, 0.000, 0.000, 03:41:49.595
122, -85067.38, -87073.36, -102381.55, -95547.29, -107145.20, -109129.82, -119366.36, -140817.69, -79845.16, -75261.00, -79645.03, -64326.62, -98425.01, -103398.98, -103475.23, -155750.45, 0.000, 0.000, 0.000, 03:41:49.599
123, -85077.13, -87065.36, -102372.91, -95531.89, -107161.05, -109125.39, -119364.52, -140801.56, -79845.16, -75261.00, -79645.03, -64326.62, -98425.01, -103398.98, -103475.23, -155750.45, 0.000, 0.000, 0.000, 03:41:49.604
124, -85077.13, -87065.36, -102372.91, -95531.89, -107161.05, -109125.39, -119364.52, -140801.56, -79830.35, -75250.09, -79634.84, -64318.84, -98420.29, -103399.73, -103473.98, -155750.22, 0.000, 0.000, 0.000, 03:41:49.607
125, -85049.57, -87055.80, -102364.41, -95528.85, -107143.48, -109128.99, -119365.44, -140817.08, -79830.35, -75250.09, -79634.84, -64318.84, -98420.29, -103399.73, -103473.98, -155750.22, 0.024, 0.948, 0.298, 03:41:49.612
126, -85049.57, -87055.80, -102364.41, -95528.85, -107143.48, -109128.99, -119365.44, -140817.08, -79825.88, -75243.86, -79629.36, -64311.04, -98423.60, -103399.26, -103475.84, -155750.38, 0.000, 0.000, 0.000, 03:41:49.616
127, -85063.12, -87049.02, -102356.14, -95513.92, -107160.72, -109125.10, -119364.50, -140800.30, -79825.88, -75243.86, -79629.36, -64311.04, -98423.60, -103399.26, -103475.84, -155750.38, 0.000, 0.000, 0.000, 03:41:49.620
128, -85063.12, -87049.02, -102356.14, -95513.92, -107160.72, -109125.10, -119364.50, -140800.30, -79816.94, -75237.04, -79619.86, -64302.43, -98423.02, -103399.59, -103473.51, -155749.45, 0.000, 0.000, 0.000, 03:41:49.623
129, -85036.52, -87039.66, -102347.36, -95511.48, -107143.59, -109129.15, -119365.22, -140816.13, -79816.94, -75237.04, -79619.86, -64302.43, -98423.02, -103399.59, -103473.51, -155749.45, 0.000, 0.000, 0.000, 03:41:49.627
130, -85036.52, -87039.66, -102347.36, -95511.48, -107143.59, -109129.15, -119365.22, -140816.13, -79808.04, -75227.74, -79614.99, -64296.96, -98423.47, -103400.75, -103478.16, -155752.11, 0.000, 0.000, 0.000, 03:41:49.631
131, -85049.44, -87034.43, -102342.11, -95498.88, -107163.49, -109127.00, -119367.12, -140803.00, -79808.04, -75227.74, -79614.99, -64296.96, -98423.47, -103400.75, -103478.16, -155752.11, 0.000, 0.000, 0.000, 03:41:49.635
132, -85049.44, -87034.43, -102342.11, -95498.88, -107163.49, -109127.00, -119367.12, -140803.00, -79805.90, -75224.21, -79607.27, -64287.50, -98427.09, -103401.09, -103474.72, -155750.53, 0.000, 0.000, 0.000, 03:41:49.641
133, -85021.98, -87024.75, -102331.55, -95495.10, -107146.99, -109130.55, -119366.31, -140817.11, -79805.90, -75224.21, -79607.27, -64287.50, -98427.09, -103401.09, -103474.72, -155750.53, 0.000, 0.000, 0.000, 03:41:49.644
134, -85021.98, -87024.75, -102331.55, -95495.10, -107146.99, -109130.55, -119366.31, -140817.11, -79790.41, -75211.59, -79600.88, -64282.30, -98423.13, -103401.87, -103480.13, -155753.52, 0.020, 0.952, 0.292, 03:41:49.648
135, -85032.91, -87017.64, -102325.97, -95481.77, -107163.83, -109127.05, -119367.14, -140804.34, -79790.41, -75211.59, -79600.88, -64282.30, -98423.13, -103401.87, -103480.13, -155753.52, 0.000, 0.000, 0.000, 03:41:49.652
136, -85032.91, -87017.64, -102325.97, -95481.77, -107163.83, -109127.05, -119367.14, -140804.34, -79792.73, -75211.85, -79593.38, -64271.95, -98430.28, -103401.76, -103475.99, -155751.02, 0.000, 0.000, 0.000, 03:41:49.655
137, -85008.58, -87009.51, -102316.90, -95478.52, -107149.19, -109131.52, -119367.79, -140818.47, -79792.73, -75211.85, -79593.38, -64271.95, -98430.28, -103401.76, -103475.99, -155751.02, 0.000, 0.000, 0.000, 03:41:49.660
138, -85008.58, -87009.51, -102316.90, -95478.52, -107149.19, -109131.52, -119367.79, -140818.47, -79771.97, -75196.56, -79586.38, -64267.75, -98422.98, -103402.81, -103481.66, -155754.38, 0.000, 0.000, 0.000, 03:41:49.663
139, -85015.82, -87002.46, -102310.81, -95466.11, -107162.69, -109128.50, -119368.75, -140807.17, -79771.97, -75196.56, -79586.38, -64267.75, -98422.98, -103402.81, -103481.66, -155754.38, 0.000, 0.000, 0.000, 03:41:49.668
140, -85015.82, -87002.46, -102310.81, -95466.11, -107162.69, -109128.50, -119368.75, -140807.17, -79780.30, -75199.76, -79580.59, -64257.38, -98434.09, -103403.08, -103477.30, -155752.16, 0.000, 0.000, 0.000, 03:41:49.673
141, -84999.45, -86997.41, -102304.67, -95464.68, -107155.04, -109135.45, -119372.15, -140821.38, -79780.30, -75199.76, -79580.59, -64257.38, -98434.09, -103403.08, -103477.30, -155752.16, 0.000, 0.000, 0.000, 03:41:49.678
142, -84999.45, -86997.41, -102304.67, -95464.68, -107155.04, -109135.45, -119372.15, -140821.38, -79758.35, -75184.90, -79575.49, -64256.59, -98426.66, -103407.52, -103486.49, -155758.91, 0.000, 0.000, 0.000, 03:41:49.680
143, -84998.80, -86985.84, -102294.70, -95449.26, -107162.41, -109128.90, -119369.09, -140807.45, -79758.35, -75184.90, -79575.49, -64256.59, -98426.66, -103407.52, -103486.49, -155758.91, 0.000, 0.000, 0.000, 03:41:49.684
144, -84998.80, -86985.84, -102294.70, -95449.26, -107162.41, -109128.90, -119369.09, -140807.45, -79763.80, -75183.64, -79563.80, -64239.09, -98434.09, -103401.13, -103475.43, -155749.56, 0.018, 0.952, 0.292, 03:41:49.689
145, -84982.98, -86977.95, -102285.20, -95442.98, -107155.49, -109131.56, -119368.26, -140813.42, -79763.80, -75183.64, -79563.80, -64239.09, -98434.09, -103401.13, -103475.43, -155749.56, 0.000, 0.000, 0.000, 03:41:49.692
146, -84982.98, -86977.95, -102285.20, -95442.98, -107155.49, -109131.56, -119368.26, -140813.42, -79738.80, -75165.59, -79557.23, -64237.48, -98423.53, -103404.66, -103483.41, -155755.67, 0.000, 0.000, 0.000, 03:41:49.697
147, -84980.73, -86969.54, -102278.07, -95432.38, -107161.50, -109129.28, -119369.09, -140807.72, -79738.80, -75165.59, -79557.23, -64237.48, -98423.53, -103404.66, -103483.41, -155755.67, 0.000, 0.000, 0.000, 03:41:49.700
148, -84980.73, -86969.54, -102278.07, -95432.38, -107161.50, -109129.28, -119369.09, -140807.72, -79752.02, -75170.55, -79551.64, -64224.85, -98437.95, -103403.01, -103477.42, -155751.17, 0.000, 0.000, 0.000, 03:41:49.704
149, -84973.22, -86963.93, -102270.74, -95426.59, -107160.18, -109133.23, -119370.18, -140812.16, -79752.02, -75170.55, -79551.64, -64224.85, -98437.95, -103403.01, -103477.42, -155751.17, 0.000, 0.000, 0.000, 03:41:49.707
150, -84973.22, -86963.93, -102270.74, -95426.59, -107160.18, -109133.23, -119370.18, -140812.16, -79725.45, -75153.52, -79544.89, -64224.76, -98427.49, -103408.11, -103486.34, -155758.34, 0.000, 0.000, 0.000, 03:41:49.711
151, -84967.74, -86956.53, -102266.07, -95419.13, -107162.93, -109133.28, -119372.88, -140813.11, -79725.45, -75153.52, -79544.89, -64224.76, -98427.49, -103408.11, -103486.34, -155758.34, 0.000, 0.000, 0.000, 03:41:49.716
152, -84967.74, -86956.53, -102266.07, -95419.13, -107162.93, -109133.28, -119372.88, -140813.11, -79737.56, -75157.27, -79537.72, -64210.30, -98440.39, -103404.33, -103478.76, -155752.05, 0.000, 0.000, 0.000, 03:41:49.719
153, -84962.06, -86948.69, -102254.82, -95409.00, -107163.96, -109133.35, -119370.83, -140811.05, -79737.56, -75157.27, -79537.72, -64210.30, -98440.39, -103404.33, -103478.76, -155752.05, 0.000, 0.000, 0.000, 03:41:49.724
154, -84962.06, -86948.69, -102254.82, -95409.00, -107163.96, -109133.35, -119370.83, -140811.05, -79709.52, -75139.41, -79529.45, -64208.27, -98428.14, -103407.57, -103485.27, -155757.33, 0.018, 0.958, 0.300, 03:41:49.729
155, -84947.29, -86937.11, -102245.77, -95398.90, -107158.82, -109130.60, -119369.06, -140811.45, -79709.52, -75139.41, -79529.45, -64208.27, -98428.14, -103407.57, -103485.27, -155757.33, 0.000, 0.000, 0.000, 03:41:49.731
156, -84947.29, -86937.11, -102245.77, -95398.90, -107158.82, -109130.60, -119369.06, -140811.45, -79717.80, -75139.32, -79518.98, -64191.10, -98437.68, -103401.00, -103475.38, -155748.48, 0.000, 0.000, 0.000, 03:41:49.736
157, -84946.77, -86929.20, -102235.98, -95387.32, -107164.67, -109129.66, -119367.54, -140805.69, -79717.80, -75139.32, -79518.98, -64191.10, -98437.68, -103401.00, -103475.38, -155748.48, 0.000, 0.000, 0.000, 03:41:49.739
158, -84946.77, -86929.20, -102235.98, -95387.32, -107164.67, -109129.66, -119367.54, -140805.69, -79692.66, -75122.98, -79511.59, -64189.56, -98427.06, -103405.56, -103481.82, -155754.34, 0.000, 0.000, 0.000, 03:41:49.743
159, -84932.34, -86921.44, -102228.65, -95382.73, -107158.51, -109132.08, -119369.62, -140813.11, -79692.66, -75122.98, -79511.59, -64189.56, -98427.06, -103405.56, -103481.82, -155754.34, 0.000, 0.000, 0.000, 03:41:49.749
160, -84932.34, -86921.44, -102228.65, -95382.73, -107158.51, -109132.08, -119369.62, -140813.11, -79704.42, -75126.18, -79507.39, -64178.29, -98440.68, -103404.27, -103478.98, -155751.55, 0.000, 0.000, 0.000, 03:41:49.752
161, -84936.94, -86916.88, -102223.06, -95373.02, -107171.25, -109133.04, -119371.09, -140806.39, -79704.42, -75126.18, -79507.39, -64178.29, -98440.68, -103404.27, -103478.98, -155751.55, 0.000, 0.000, 0.000, 03:41:49.756
162, -84936.94, -86916.88, -102223.06, -95373.02, -107171.25, -109133.04, -119371.09, -140806.39, -79682.02, -75112.07, -79500.41, -64176.62, -98432.36, -103409.29, -103484.53, -155757.09, 0.000, 0.000, 0.000, 03:41:49.759
163, -84912.98, -86905.77, -102213.98, -95366.48, -107157.52, -109133.08, -119370.16, -140814.23, -79682.02, -75112.07, -79500.41, -64176.62, -98432.36, -103409.29, -103484.53, -155757.09, 0.000, 0.000, 0.000, 03:41:49.763
164, -84912.98, -86905.77, -102213.98, -95366.48, -107157.52, -109133.08, -119370.16, -140814.23, -79684.84, -75107.89, -79490.83, -64161.15, -98438.55, -103402.54, -103477.82, -155749.78, 0.012, 0.946, 0.298, 03:41:49.768
165, -84920.82, -86898.62, -102204.48, -95352.78, -107170.30, -109130.24, -119368.84, -140801.48, -79684.84, -75107.89, -79490.83, -64161.15, -98438.55, -103402.54, -103477.82, -155749.78, 0.000, 0.000, 0.000, 03:41:49.773
166, -84920.82, -86898.62, -102204.48, -95352.78, -107170.30, -109130.24, -119368.84, -140801.48, -79666.13, -75095.96, -79483.88, -64158.56, -98432.52, -103407.21, -103482.45, -155754.77, 0.000, 0.000, 0.000, 03:41:49.777
167, -84896.57, -86889.52, -102197.27, -95349.72, -107156.59, -109133.53, -119370.59, -140815.98, -79666.13, -75095.96, -79483.88, -64158.56, -98432.52, -103407.21, -103482.45, -155754.77, 0.000, 0.000, 0.000, 03:41:49.781
168, -84896.57, -86889.52, -102197.27, -95349.72, -107156.59, -109133.53, -119370.59, -140815.98, -79667.38, -75092.36, -79477.41, -64147.56, -98439.07, -103404.44, -103480.62, -155752.05, 0.000, 0.000, 0.000, 03:41:49.784
169, -84907.37, -86882.66, -102188.98, -95335.35, -107172.70, -109130.20, -119369.48, -140800.89, -79667.38, -75092.36, -79477.41, -64147.56, -98439.07, -103404.44, -103480.62, -155752.05, 0.000, 0.000, 0.000, 03:41:49.786
170, -84907.37, -86882.66, -102188.98, -95335.35, -107172.70, -109130.20, -119369.48, -140800.89, -79653.23, -75083.55, -79469.97, -64143.34, -98435.94, -103408.13, -103483.34, -155755.38, 0.000, 0.000, 0.000, 03:41:49.791
171, -84883.74, -86875.77, -102182.80, -95335.08, -107158.73, -109136.05, -119372.77, -140818.98, -79653.23, -75083.55, -79469.97, -64143.34, -98435.94, -103408.13, -103483.34, -155755.38, 0.000, 0.000, 0.000, 03:41:49.796
172, -84883.74, -86875.77, -102182.80, -95335.08, -107158.73, -109136.05, -119372.77, -140818.98, -79651.98, -75078.50, -79465.68, -64136.05, -98441.10, -103408.42, -103485.69, -155756.30, 0.000, 0.000, 0.000, 03:41:49.799
173, -84896.02, -86868.98, -102175.23, -95321.23, -107176.74, -109132.95, -119373.06, -140805.38, -79651.98, -75078.50, -79465.68, -64136.05, -98441.10, -103408.42, -103485.69, -155756.30, 0.000, 0.000, 0.000, 03:41:49.803
174, -84896.02, -86868.98, -102175.23, -95321.23, -107176.74, -109132.95, -119373.06, -140805.38, -79640.47, -75069.67, -79456.52, -64127.76, -98438.78, -103408.94, -103483.97, -155755.89, 0.014, 0.934, 0.288, 03:41:49.808
175, -84866.91, -86858.45, -102165.15, -95317.29, -107158.15, -109135.63, -119372.28, -140819.88, -79640.47, -75069.67, -79456.52, -64127.76, -98438.78, -103408.94, -103483.97, -155755.89, 0.000, 0.000, 0.000, 03:41:49.811
176, -84866.91, -86858.45, -102165.15, -95317.29, -107158.15, -109135.63, -119372.28, -140819.88, -79631.77, -75060.73, -79450.44, -64120.60, -98439.45, -103408.48, -103487.30, -155756.92, 0.000, 0.000, 0.000, 03:41:49.815
177, -84879.52, -86853.16, -102161.30, -95305.06, -107178.20, -109133.88, -119374.70, -140807.14, -79631.77, -75060.73, -79450.44, -64120.60, -98439.45, -103408.48, -103487.30, -155756.92, 0.000, 0.000, 0.000, 03:41:49.819
178, -84879.52, -86853.16, -102161.30, -95305.06, -107178.20, -109133.88, -119374.70, -140807.14, -79628.20, -75057.80, -79444.11, -64113.65, -98443.20, -103410.68, -103486.56, -155757.66, 0.000, 0.000, 0.000, 03:41:49.824
179, -84852.38, -86844.77, -102152.12, -95302.56, -107161.26, -109138.40, -119375.48, -140822.44, -79628.20, -75057.80, -79444.11, -64113.65, -98443.20, -103410.68, -103486.56, -155757.66, 0.000, 0.000, 0.000, 03:41:49.828
180, -84852.38, -86844.77, -102152.12, -95302.56, -107161.26, -109138.40, -119375.48, -140822.44, -79614.09, -75045.40, -79437.63, -64107.57, -98439.91, -103410.27, -103490.83, -155759.27, 0.000, 0.000, 0.000, 03:41:49.831
181, -84863.34, -86837.02, -102145.52, -95288.50, -107177.37, -109134.45, -119375.63, -140806.73, -79614.09, -75045.40, -79437.63, -64107.57, -98439.91, -103410.27, -103490.83, -155759.27, 0.000, 0.000, 0.000, 03:41:49.835
182, -84863.34, -86837.02, -102145.52, -95288.50, -107177.37, -109134.45, -119375.63, -140806.73, -79615.70, -75044.91, -79430.88, -64099.01, -98446.94, -103411.82, -103488.75, -155758.89, 0.000, 0.000, 0.000, 03:41:49.838
183, -84840.05, -86828.57, -102136.59, -95285.55, -107162.35, -109138.60, -119376.22, -140820.98, -79615.70, -75044.91, -79430.88, -64099.01, -98446.94, -103411.82, -103488.75, -155758.89, 0.000, 0.000, 0.000, 03:41:49.843
184, -84840.05, -86828.57, -102136.59, -95285.55, -107162.35, -109138.60, -119376.22, -140820.98, -79595.56, -75028.12, -79422.41, -64092.48, -98439.05, -103410.90, -103492.73, -155760.30, 0.012, 0.932, 0.304, 03:41:49.847
185, -84846.99, -86819.94, -102128.13, -95271.05, -107176.43, -109133.48, -119375.32, -140806.75, -79595.56, -75028.12, -79422.41, -64092.48, -98439.05, -103410.90, -103492.73, -155760.30, 0.000, 0.000, 0.000, 03:41:49.851
186, -84846.99, -86819.94, -102128.13, -95271.05, -107176.43, -109133.48, -119375.32, -140806.75, -79599.72, -75027.72, -79414.60, -64080.26, -98446.98, -103409.13, -103487.21, -155756.38, 0.000, 0.000, 0.000, 03:41:49.856
187, -84824.33, -86811.22, -102119.46, -95267.11, -107164.59, -109137.28, -119375.95, -140819.56, -79599.72, -75027.72, -79414.60, -64080.26, -98446.98, -103409.13, -103487.21, -155756.38, 0.000, 0.000, 0.000, 03:41:49.860
188, -84824.33, -86811.22, -102119.46, -95267.11, -107164.59, -109137.28, -119375.95, -140819.56, -79578.76, -75013.03, -79409.46, -64078.87, -98440.09, -103412.78, -103496.38, -155762.94, 0.000, 0.000, 0.000, 03:41:49.862
189, -84829.49, -86803.96, -102114.61, -95255.64, -107176.90, -109134.78, -119377.84, -140811.58, -79578.76, -75013.03, -79409.46, -64078.87, -98440.09, -103412.78, -103496.38, -155762.94, 0.000, 0.000, 0.000, 03:41:49.866
190, -84829.49, -86803.96, -102114.61, -95255.64, -107176.90, -109134.78, -119377.84, -140811.58, -79584.68, -75013.77, -79399.88, -64063.94, -98448.66, -103408.46, -103487.97, -155755.95, 0.000, 0.000, 0.000, 03:41:49.871
191, -84810.61, -86794.75, -102103.64, -95249.09, -107166.58, -109137.04, -119376.77, -140819.05, -79584.68, -75013.77, -79399.88, -64063.94, -98448.66, -103408.46, -103487.97, -155755.95, 0.000, 0.000, 0.000, 03:41:49.875
192, -84810.61, -86794.75, -102103.64, -95249.09, -107166.58, -109137.04, -119376.77, -140819.05, -79560.20, -74997.61, -79394.04, -64063.09, -98439.56, -103412.20, -103497.05, -155762.70, 0.000, 0.000, 0.000, 03:41:49.879
193, -84809.22, -86783.66, -102094.61, -95235.39, -107171.45, -109131.54, -119375.14, -140809.45, -79560.20, -74997.61, -79394.04, -64063.09, -98439.56, -103412.20, -103497.05, -155762.70, 0.000, 0.000, 0.000, 03:41:49.885
194, -84809.22, -86783.66, -102094.61, -95235.39, -107171.45, -109131.54, -119375.14, -140809.45, -79564.74, -74994.34, -79380.34, -64043.20, -98445.62, -103403.19, -103483.92, -155750.91, 0.018, 0.934, 0.296, 03:41:49.888
195, -84793.75, -86774.01, -102083.30, -95226.48, -107164.52, -109131.88, -119372.68, -140811.47, -79564.74, -74994.34, -79380.34, -64043.20, -98445.62, -103403.19, -103483.92, -155750.91, 0.000, 0.000, 0.000, 03:41:49.890
196, -84793.75, -86774.01, -102083.30, -95226.48, -107164.52, -109131.88, -119372.68, -140811.47, -79541.74, -74979.17, -79376.85, -64045.05, -98437.68, -103410.23, -103495.32, -155760.58, 0.000, 0.000, 0.000, 03:41:49.895
197, -84791.45, -86767.23, -102077.75, -95218.63, -107170.24, -109131.63, -119375.21, -140809.45, -79541.74, -74979.17, -79376.85, -64045.05, -98437.68, -103410.23, -103495.32, -155760.58, 0.000, 0.000, 0.000, 03:41:49.899
198, -84791.45, -86767.23, -102077.75, -95218.63, -107170.24, -109131.63, -119375.21, -140809.45, -79549.34, -74977.59, -79365.41, -64026.05, -98446.22, -103402.41, -103483.77, -155750.19, 0.000, 0.000, 0.000, 03:41:49.902
199, -84776.81, -86752.82, -102062.48, -95203.90, -107164.43, -109126.55, -119368.48, -140804.30, -79549.34, -74977.59, -79365.41, -64026.05, -98446.22, -103402.41, -103483.77, -155750.19, 0.000, 0.000, 0.000, 03:41:49.908
200, -84776.81, -86752.82, -102062.48, -95203.90, -107164.43, -109126.55, -119368.48, -140804.30, -79518.88, -74956.39, -79355.35, -64021.72, -98431.58, -103403.48, -103488.75, -155753.64, 0.000, 0.000, 0.000, 03:41:49.912
201, -84765.97, -86744.05, -102056.50, -95196.16, -107163.98, -109126.24, -119370.11, -140805.72, -79518.88, -74956.39, -79355.35, -64021.72, -98431.58, -103403.48, -103488.75, -155753.64, 0.000, 0.000, 0.000, 03:41:49.915
202, -84765.97, -86744.05, -102056.50, -95196.16, -107163.98, -109126.24, -119370.11, -140805.72, -79530.25, -74959.68, -79348.09, -64007.35, -98444.59, -103399.61, -103481.95, -155747.55, 0.000, 0.000, 0.000, 03:41:49.919
203, -84764.85, -86737.53, -102047.89, -95186.89, -107168.90, -109127.31, -119370.27, -140803.30, -79530.25, -74959.68, -79348.09, -64007.35, -98444.59, -103399.61, -103481.95, -155747.55, 0.014, 0.930, 0.298, 03:41:49.923
204, -84764.85, -86737.53, -102047.89, -95186.89, -107168.90, -109127.31, -119370.27, -140803.30, -79507.12, -74946.34, -79344.02, -64009.92, -98436.95, -103407.34, -103492.95, -155757.25, 0.000, 0.000, 0.000, 03:41:49.926
205, -84753.48, -86731.94, -102044.36, -95184.01, -107165.88, -109131.43, -119375.12, -140812.13, -79507.12, -74946.34, -79344.02, -64009.92, -98436.95, -103407.34, -103492.95, -155757.25, 0.000, 0.000, 0.000, 03:41:49.931
206, -84753.48, -86731.94, -102044.36, -95184.01, -107165.88, -109131.43, -119375.12, -140812.13, -79517.52, -74948.03, -79337.85, -63996.71, -98449.35, -103403.81, -103487.92, -155752.31, 0.000, 0.000, 0.000, 03:41:49.935
207, -84754.13, -86724.77, -102035.66, -95172.27, -107173.77, -109130.06, -119374.05, -140804.67, -79517.52, -74948.03, -79337.85, -63996.71, -98449.35, -103403.81, -103487.92, -155752.31, 0.000, 0.000, 0.000, 03:41:49.940
208, -84754.13, -86724.77, -102035.66, -95172.27, -107173.77, -109130.06, -119374.05, -140804.67, -79494.85, -74932.99, -79331.66, -63995.70, -98440.52, -103409.34, -103495.05, -155759.09, 0.000, 0.000, 0.000, 03:41:49.944
209, -84734.88, -86715.34, -102027.62, -95167.38, -107164.27, -109131.31, -119375.12, -140814.44, -79494.85, -74932.99, -79331.66, -63995.70, -98440.52, -103409.34, -103495.05, -155759.09, 0.000, 0.000, 0.000, 03:41:49.947
210, -84734.88, -86715.34, -102027.62, -95167.38, -107164.27, -109131.31, -119375.12, -140814.44, -79498.34, -74929.15, -79321.60, -63979.16, -98447.02, -103402.25, -103487.75, -155751.28, 0.000, 0.000, 0.000, 03:41:49.951
211, -84737.80, -86705.19, -102016.13, -95151.64, -107174.22, -109126.20, -119371.23, -140801.44, -79498.34, -74929.15, -79321.60, -63979.16, -98447.02, -103402.25, -103487.75, -155751.28, 0.000, 0.000, 0.000, 03:41:49.954
212, -84737.80, -86705.19, -102016.13, -95151.64, -107174.22, -109126.20, -119371.23, -140801.44, -79476.52, -74915.13, -79313.51, -63975.68, -98438.53, -103405.45, -103492.15, -155755.52, 0.000, 0.000, 0.000, 03:41:49.959
213, -84715.14, -86697.09, -102010.23, -95149.59, -107162.71, -109130.38, -119374.18, -140815.97, -79476.52, -74915.13, -79313.51, -63975.68, -98438.53, -103405.45, -103492.15, -155755.52, 0.012, 0.936, 0.304, 03:41:49.962
214, -84715.14, -86697.09, -102010.23, -95149.59, -107162.71, -109130.38, -119374.18, -140815.97, -79481.68, -74915.36, -79309.33, -63966.73, -98448.75, -103404.76, -103492.41, -155754.77, 0.000, 0.000, 0.000, 03:41:49.968
215, -84725.58, -86690.81, -102002.72, -95136.22, -107177.51, -109127.83, -119374.16, -140804.36, -79481.68, -74915.36, -79309.33, -63966.73, -98448.75, -103404.76, -103492.41, -155754.77, 0.000, 0.000, 0.000, 03:41:49.971
216, -84725.58, -86690.81, -102002.72, -95136.22, -107177.51, -109127.83, -119374.16, -140804.36, -79463.51, -74903.42, -79300.19, -63961.57, -98442.47, -103407.01, -103494.16, -155757.03, 0.000, 0.000, 0.000, 03:41:49.975
217, -84701.17, -86682.61, -101995.59, -95134.99, -107162.75, -109133.22, -119377.34, -140820.72, -79463.51, -74903.42, -79300.19, -63961.57, -98442.47, -103407.01, -103494.16, -155757.03, 0.000, 0.000, 0.000, 03:41:49.978
218, -84701.17, -86682.61, -101995.59, -95134.99, -107162.75, -109133.22, -119377.34, -140820.72, -79464.92, -74901.66, -79297.46, -63955.29, -98450.87, -103408.69, -103497.73, -155759.02, 0.000, 0.000, 0.000, 03:41:49.983
219, -84716.53, -86679.57, -101991.48, -95124.04, -107183.56, -109133.20, -119380.44, -140809.06, -79464.92, -74901.66, -79297.46, -63955.29, -98450.87, -103408.69, -103497.73, -155759.02, 0.000, 0.000, 0.000, 03:41:49.986
220, -84716.53, -86679.57, -101991.48, -95124.04, -107183.56, -109133.20, -119380.44, -140809.06, -79454.91, -74894.45, -79290.66, -63950.26, -98449.80, -103412.35, -103499.33, -155761.66, 0.000, 0.000, 0.000, 03:41:49.992
221, -84688.08, -86669.11, -101982.02, -95120.23, -107166.20, -109136.19, -119380.17, -140822.88, -79454.91, -74894.45, -79290.66, -63950.26, -98449.80, -103412.35, -103499.33, -155761.66, 0.000, 0.000, 0.000, 03:41:49.996
222, -84688.08, -86669.11, -101982.02, -95120.23, -107166.20, -109136.19, -119380.17, -140822.88, -79446.91, -74884.89, -79283.11, -63940.49, -98450.49, -103410.21, -103499.91, -155760.45, 0.000, 0.000, 0.000, 03:41:49.998
223, -84699.16, -86662.36, -101975.18, -95106.00, -107184.99, -109132.70, -119380.22, -140807.00, -79446.91, -74884.89, -79283.11, -63940.49, -98450.49, -103410.21, -103499.91, -155760.45, 0.018, 0.936, 0.290, 03:41:50.003
224, -84699.16, -86662.36, -101975.18, -95106.00, -107184.99, -109132.70, -119380.22, -140807.00, -79441.00, -74878.72, -79275.33, -63932.25, -98451.32, -103411.64, -103498.19, -155760.19, 0.000, 0.000, 0.000, 03:41:50.006
225, -84669.19, -86650.63, -101963.85, -95100.81, -107165.75, -109134.67, -119378.54, -140820.59, -79441.00, -74878.72, -79275.33, -63932.25, -98451.32, -103411.64, -103498.19, -155760.19, 0.000, 0.000, 0.000, 03:41:50.011
226, -84669.19, -86650.63, -101963.85, -95100.81, -107165.75, -109134.67, -119378.54, -140820.59, -79425.00, -74863.79, -79264.36, -63921.25, -98445.93, -103407.08, -103497.47, -155757.08, 0.000, 0.000, 0.000, 03:41:50.015
227, -84678.95, -86640.30, -101953.88, -95083.54, -107180.01, -109127.83, -119375.66, -140802.44, -79425.00, -74863.79, -79264.36, -63921.25, -98445.93, -103407.08, -103497.47, -155757.08, 0.000, 0.000, 0.000, 03:41:50.019
228, -84678.95, -86640.30, -101953.88, -95083.54, -107180.01, -109127.83, -119375.66, -140802.44, -79422.79, -74861.13, -79255.59, -63911.37, -98450.20, -103407.05, -103493.89, -155755.22, 0.000, 0.000, 0.000, 03:41:50.023
229, -84655.77, -86632.97, -101946.48, -95082.33, -107165.68, -109133.73, -119378.05, -140819.58, -79422.79, -74861.13, -79255.59, -63911.37, -98450.20, -103407.05, -103493.89, -155755.22, 0.000, 0.000, 0.000, 03:41:50.026
230, -84655.77, -86632.97, -101946.48, -95082.33, -107165.68, -109133.73, -119378.05, -140819.58, -79407.99, -74849.95, -79251.02, -63908.29, -98447.34, -103409.49, -103501.05, -155760.06, 0.000, 0.000, 0.000, 03:41:50.031
231, -84664.59, -86625.81, -101940.11, -95068.76, -107181.91, -109130.20, -119378.77, -140806.44, -79407.99, -74849.95, -79251.02, -63908.29, -98447.34, -103409.49, -103501.05, -155760.06, 0.000, 0.000, 0.000, 03:41:50.035
232, -84664.59, -86625.81, -101940.11, -95068.76, -107181.91, -109130.20, -119378.77, -140806.44, -79410.70, -74849.40, -79242.84, -63896.30, -98454.36, -103407.98, -103495.57, -155756.14, 0.000, 0.000, 0.000, 03:41:50.039
233, -84641.23, -86617.43, -101931.55, -95065.14, -107168.66, -109134.34, -119379.39, -140819.67, -79410.70, -74849.40, -79242.84, -63896.30, -98454.36, -103407.98, -103495.57, -155756.14, 0.014, 0.940, 0.290, 03:41:50.045
234, -84641.23, -86617.43, -101931.55, -95065.14, -107168.66, -109134.34, -119379.39, -140819.67, -79390.71, -74834.48, -79237.18, -63893.42, -98447.65, -103410.63, -103503.19, -155761.50, 0.000, 0.000, 0.000, 03:41:50.048
235, -84646.37, -86609.30, -101924.51, -95052.11, -107181.73, -109130.38, -119379.77, -140808.16, -79390.71, -74834.48, -79237.18, -63893.42, -98447.65, -103410.63, -103503.19, -155761.50, 0.000, 0.000, 0.000, 03:41:50.051
236, -84646.37, -86609.30, -101924.51, -95052.11, -107181.73, -109130.38, -119379.77, -140808.16, -79396.70, -74835.09, -79228.46, -63879.61, -98456.44, -103407.64, -103495.93, -155755.88, 0.000, 0.000, 0.000, 03:41:50.053
237, -84629.85, -86602.79, -101916.82, -95048.87, -107173.34, -109135.61, -119381.24, -140819.34, -79396.70, -74835.09, -79228.46, -63879.61, -98456.44, -103407.64, -103495.93, -155755.88, 0.000, 0.000, 0.000, 03:41:50.058
238, -84629.85, -86602.79, -101916.82, -95048.87, -107173.34, -109135.61, -119381.24, -140819.34, -79375.94, -74821.26, -79225.04, -63880.77, -98450.29, -103413.83, -103507.33, -155764.73, 0.000, 0.000, 0.000, 03:41:50.063
239, -84631.37, -86594.14, -101910.45, -95037.40, -107182.40, -109132.55, -119381.98, -140810.58, -79375.94, -74821.26, -79225.04, -63880.77, -98450.29, -103413.83, -103507.33, -155764.73, 0.000, 0.000, 0.000, 03:41:50.067
240, -84631.37, -86594.14, -101910.45, -95037.40, -107182.40, -109132.55, -119381.98, -140810.58, -79383.16, -74821.08, -79215.09, -63864.68, -98459.21, -103408.27, -103497.73, -155756.73, 0.000, 0.000, 0.000, 03:41:50.071
241, -84614.65, -86585.24, -101899.86, -95030.07, -107174.17, -109133.82, -119380.69, -140815.92, -79383.16, -74821.08, -79215.09, -63864.68, -98459.21, -103408.27, -103497.73, -155756.73, 0.000, 0.000, 0.000, 03:41:50.074
242, -84614.65, -86585.24, -101899.86, -95030.07, -107174.17, -109133.82, -119380.69, -140815.92, -79356.00, -74802.55, -79207.72, -63863.13, -98447.85, -103411.46, -103505.92, -155762.80, 0.000, 0.000, 0.000, 03:41:50.079
243, -84610.72, -86574.56, -101891.23, -95017.84, -107176.68, -109129.46, -119379.50, -140809.14, -79356.00, -74802.55, -79207.72, -63863.13, -98447.85, -103411.46, -103505.92, -155762.80, 0.012, 0.940, 0.280, 03:41:50.082
244, -84610.72, -86574.56, -101891.23, -95017.84, -107176.68, -109129.46, -119379.50, -140809.14, -79364.63, -74803.09, -79198.15, -63846.79, -98458.00, -103405.85, -103496.77, -155754.75, 0.000, 0.000, 0.000, 03:41:50.087
245, -84602.11, -86569.24, -101884.10, -95012.73, -107177.10, -109133.59, -119381.67, -140814.38, -79364.63, -74803.09, -79198.15, -63846.79, -98458.00, -103405.85, -103496.77, -155754.75, 0.000, 0.000, 0.000, 03:41:50.091
246, -84602.11, -86569.24, -101884.10, -95012.73, -107177.10, -109133.59, -119381.67, -140814.38, -79341.23, -74789.31, -79196.01, -63850.44, -98450.55, -103414.30, -103510.05, -155766.02, 0.000, 0.000, 0.000, 03:41:50.095
247, -84592.90, -86559.72, -101877.10, -95003.60, -107176.79, -109131.54, -119382.01, -140813.73, -79341.23, -74789.31, -79196.01, -63850.44, -98450.55, -103414.30, -103510.05, -155766.02, 0.000, 0.000, 0.000, 03:41:50.101
248, -84592.90, -86559.72, -101877.10, -95003.60, -107176.79, -109131.54, -119382.01, -140813.73, -79349.98, -74788.91, -79186.02, -63833.38, -98460.37, -103407.34, -103500.58, -155757.17, 0.000, 0.000, 0.000, 03:41:50.104
249, -84590.09, -86555.05, -101870.66, -94997.05, -107181.70, -109134.76, -119384.24, -140815.22, -79349.98, -74788.91, -79186.02, -63833.38, -98460.37, -103407.34, -103500.58, -155757.17, 0.000, 0.000, 0.000, 03:41:50.107
250, -84590.09, -86555.05, -101870.66, -94997.05, -107181.70, -109134.76, -119384.24, -140815.22, -79327.75, -74775.41, -79183.98, -63837.52, -98453.35, -103416.80, -103513.63, -155769.08, 0.000, 0.000, 0.000, 03:41:50.110
251, -84578.02, -86546.60, -101863.76, -94991.22, -107178.16, -109135.49, -119386.30, -140821.28, -79327.75, -74775.41, -79183.98, -63837.52, -98453.35, -103416.80, -103513.63, -155769.08, 0.000, 0.000, 0.000, 03:41:50.114
252, -84578.02, -86546.60, -101863.76, -94991.22, -107178.16, -109135.49, -119386.30, -140821.28, -79334.70, -74773.58, -79173.92, -63820.31, -98462.02, -103409.45, -103504.78, -155760.30, 0.000, 0.000, 0.000, 03:41:50.119
253, -84574.51, -86536.45, -101852.27, -94977.37, -107181.66, -109131.78, -119382.67, -140813.44, -79334.70, -74773.58, -79173.92, -63820.31, -98462.02, -103409.45, -103504.78, -155760.30, 0.012, 0.950, 0.288, 03:41:50.123
254, -84574.51, -86536.45, -101852.27, -94977.37, -107181.66, -109131.78, -119382.67, -140813.44, -79305.82, -74754.67, -79164.02, -63816.71, -98449.10, -103411.64, -103509.77, -155764.30, 0.000, 0.000, 0.000, 03:41:50.127
255, -84553.18, -86524.36, -101843.22, -94969.63, -107170.40, -109130.40, -119381.94, -140819.88, -79305.82, -74754.67, -79164.02, -63816.71, -98449.10, -103411.64, -103509.77, -155764.30, 0.000, 0.000, 0.000, 03:41:50.132
0, -84553.18, -86524.36, -101843.22, -94969.63, -107170.40, -109130.40, -119381.94, -140819.88, -79313.30, -74754.67, -79157.07, -63803.16, -98458.96, -103407.28, -103505.09, -155759.27, 0.000, 0.000, 0.000, 03:41:50.134
1, -84560.58, -86519.38, -101835.04, -94959.15, -107182.24, -109130.49, -119382.85, -140812.28, -79313.30, -74754.67, -79157.07, -63803.16, -98458.96, -103407.28, -103505.09, -155759.27, 0.000, 0.000, 0.000, 03:41:50.138
2, -84560.58, -86519.38, -101835.04, -94959.15, -107182.24, -109130.49, -119382.85, -140812.28, -79290.27, -74740.90, -79150.45, -63801.89, -98450.89, -103411.93, -103511.88, -155765.22, 0.000, 0.000, 0.000, 03:41:50.143
3, -84535.21, -86508.58, -101828.11, -94954.14, -107168.90, -109131.85, -119383.68, -140822.02, -79290.27, -74740.90, -79150.45, -63801.89, -98450.89, -103411.93, -103511.88, -155765.22, 0.000, 0.000, 0.000, 03:41:50.147
4, -84535.21, -86508.58, -101828.11, -94954.14, -107168.90, -109131.85, -119383.68, -140822.02, -79293.95, -74737.97, -79143.26, -63789.33, -98458.70, -103408.38, -103508.65, -155761.33, 0.000, 0.000, 0.000, 03:41:50.151
5, -84543.93, -86502.48, -101820.44, -94941.52, -107183.07, -109129.88, -119383.77, -140810.33, -79293.95, -74737.97, -79143.26, -63789.33, -98458.70, -103408.38, -103508.65, -155761.33, 0.000, 0.000, 0.000, 03:41:50.154
6, -84543.93, -86502.48, -101820.44, -94941.52, -107183.07, -109129.88, -119383.77, -140810.33, -79274.05, -74723.84, -79134.43, -63784.30, -98450.67, -103410.34, -103511.22, -155763.78, 0.012, 0.950, 0.298, 03:41:50.158
7, -84515.81, -86490.19, -101808.55, -94935.55, -107165.05, -109129.98, -119381.87, -140820.91, -79274.05, -74723.84, -79134.43, -63784.30, -98450.67, -103410.34, -103511.22, -155763.78, 0.000, 0.000, 0.000, 03:41:50.162
8, -84515.81, -86490.19, -101808.55, -94935.55, -107165.05, -109129.98, -119381.87, -140820.91, -79272.80, -74717.68, -79127.56, -63772.86, -98455.77, -103406.95, -103509.98, -155760.83, 0.000, 0.000, 0.000, 03:41:50.166
9, -84525.16, -86484.06, -101803.59, -94922.63, -107182.35, -109127.67, -119382.61, -140807.77, -79272.80, -74717.68, -79127.56, -63772.86, -98455.77, -103406.95, -103509.98, -155760.83, 0.000, 0.000, 0.000, 03:41:50.170
10, -84525.16, -86484.06, -101803.59, -94922.63, -107182.35, -109127.67, -119382.61, -140807.77, -79259.30, -74708.60, -79120.23, -63768.23, -98452.84, -103410.41, -103512.34, -155763.94, 0.000, 0.000, 0.000, 03:41:50.174
11, -84498.46, -86474.83, -101795.07, -94920.05, -107165.37, -109131.41, -119383.86, -140824.14, -79259.30, -74708.60, -79120.23, -63768.23, -98452.84, -103410.41, -103512.34, -155763.94, 0.000, 0.000, 0.000, 03:41:50.180
12, -84498.46, -86474.83, -101795.07, -94920.05, -107165.37, -109131.41, -119383.86, -140824.14, -79255.05, -74702.84, -79114.91, -63760.25, -98456.64, -103409.47, -103514.81, -155764.27, 0.000, 0.000, 0.000, 03:41:50.184
13, -84513.73, -86470.09, -101789.77, -94908.01, -107185.02, -109130.04, -119386.50, -140812.36, -79255.05, -74702.84, -79114.91, -63760.25, -98456.64, -103409.47, -103514.81, -155764.27, 0.000, 0.000, 0.000, 03:41:50.187
14, -84513.73, -86470.09, -101789.77, -94908.01, -107185.02, -109130.04, -119386.50, -140812.36, -79246.52, -74696.95, -79107.63, -63753.99, -98457.02, -103411.93, -103515.38, -155765.69, 0.000, 0.000, 0.000, 03:41:50.190
15, -84483.18, -86457.77, -101778.91, -94902.71, -107165.41, -109131.38, -119384.91, -140825.58, -79246.52, -74696.95, -79107.63, -63753.99, -98457.02, -103411.93, -103515.38, -155765.69, 0.000, 0.000, 0.000, 03:41:50.194
16, -84483.18, -86457.77, -101778.91, -94902.71, -107165.41, -109131.38, -119384.91, -140825.58, -79233.78, -74684.28, -79098.38, -63743.82, -98453.51, -103407.99, -103515.20, -155763.48, 0.010, 0.956, 0.300, 03:41:50.198
17, -84495.36, -86451.98, -101773.28, -94889.41, -107184.57, -109128.48, -119385.87, -140811.27, -79233.78, -74684.28, -79098.38, -63743.82, -98453.51, -103407.99, -103515.20, -155763.48, 0.000, 0.000, 0.000, 03:41:50.203
18, -84495.36, -86451.98, -101773.28, -94889.41, -107184.57, -109128.48, -119385.87, -140811.27, -79235.41, -74684.82, -79095.38, -63739.53, -98461.33, -103413.09, -103517.52, -155767.06, 0.000, 0.000, 0.000, 03:41:50.207
19, -84471.62, -86446.38, -101767.40, -94890.10, -107171.91, -109136.13, -119389.91, -140829.83, -79235.41, -74684.82, -79095.38, -63739.53, -98461.33, -103413.09, -103517.52, -155767.06, 0.000, 0.000, 0.000, 03:41:50.210
20, -84471.62, -86446.38, -101767.40, -94890.10, -107171.91, -109136.13, -119389.91, -140829.83, -79219.95, -74670.76, -79088.31, -63732.91, -98457.06, -103412.78, -103521.48, -155768.75, 0.000, 0.000, 0.000, 03:41:50.215
21, -84478.98, -86435.84, -101757.19, -94872.94, -107185.80, -109128.88, -119387.13, -140811.97, -79219.95, -74670.76, -79088.31, -63732.91, -98457.06, -103412.78, -103521.48, -155768.75, 0.000, 0.000, 0.000, 03:41:50.218
22, -84478.98, -86435.84, -101757.19, -94872.94, -107185.80, -109128.88, -119387.13, -140811.97, -79219.43, -74667.52, -79078.28, -63719.88, -98461.09, -103410.09, -103514.68, -155763.67, 0.000, 0.000, 0.000, 03:41:50.222
23, -84454.56, -86427.04, -101747.71, -94868.80, -107170.53, -109132.45, -119386.50, -140824.70, -79219.43, -74667.52, -79078.28, -63719.88, -98461.09, -103410.09, -103514.68, -155763.67, 0.000, 0.000, 0.000, 03:41:50.226
24, -84454.56, -86427.04, -101747.71, -94868.80, -107170.53, -109132.45, -119386.50, -140824.70, -79201.66, -74655.16, -79073.32, -63718.09, -98457.11, -103413.70, -103523.53, -155769.70, 0.000, 0.000, 0.000, 03:41:50.230
25, -84466.39, -86422.41, -101745.07, -94859.08, -107187.88, -109132.12, -119390.70, -140815.77, -79201.66, -74655.16, -79073.32, -63718.09, -98457.11, -103413.70, -103523.53, -155769.70, 0.000, 0.000, 0.000, 03:41:50.235
