%OpenBCI Raw EEG Data
%
%Sample Rate = 250.0 Hz
%First Column = SampleIndex
%Last Column = Timestamp 
%Other Columns = EEG data in microvolts followed by Accel Data (in G) interleaved with Aux Data
0, 0.00, 0.00, 0.00, 0.00, 0.00, 0.00, 0.00, 0.00, -18.80, -23.40, -13.90, -23.89, -25.44, -24.94, -21.39, -17.97, 0.010, 0.944, 0.300, 04:02:02.272
1, -20.92, -26.62, -18.44, -22.02, -24.97, -14.89, -16.81, -22.02, -18.80, -23.40, -13.90, -23.89, -25.44, -24.94, -21.39, -17.97, 0.000, 0.000, 0.000, 04:02:02.275
2, -20.92, -26.62, -18.44, -22.02, -24.97, -14.89, -16.81, -22.02, -18.75, -23.49, -13.99, -23.89, -25.55, -24.94, -21.21, -17.99, 0.000, 0.000, 0.000, 04:02:02.279
3, -20.65, -26.53, -18.33, -22.20, -24.94, -15.04, -16.70, -21.88, -18.75, -23.49, -13.99, -23.89, -25.55, -24.94, -21.21, -17.99, 0.000, 0.000, 0.000, 04:02:02.283
4, -20.65, -26.53, -18.33, -22.20, -24.94, -15.04, -16.70, -21.88, -18.95, -23.29, -13.95, -24.01, -25.28, -24.79, -21.28, -18.13, 0.000, 0.000, 0.000, 04:02:02.287
5, -20.45, -26.64, -18.60, -22.04, -24.94, -15.02, -16.90, -21.99, -18.95, -23.29, -13.95, -24.01, -25.28, -24.79, -21.28, -18.13, 0.000, 0.000, 0.000, 04:02:02.291
6, -20.45, -26.64, -18.60, -22.04, -24.94, -15.02, -16.90, -21.99, -18.98, -23.42, -13.90, -24.01, -25.32, -24.79, -21.50, -18.17, 0.000, 0.000, 0.000, 04:02:02.296
7, -20.59, -26.46, -18.53, -22.26, -24.92, -14.95, -16.67, -22.15, -18.98, -23.42, -13.90, -24.01, -25.32, -24.79, -21.50, -18.17, 0.016, 0.992, 0.308, 04:02:02.300
8, -20.59, -26.46, -18.53, -22.26, -24.92, -14.95, -16.67, -22.15, -18.95, -23.36, -13.81, -24.12, -25.32, -24.72, -21.32, -18.24, 0.000, 0.000, 0.000, 04:02:02.303
9, -20.81, -26.46, -18.53, -22.06, -25.08, -14.91, -16.67, -22.02, -18.95, -23.36, -13.81, -24.12, -25.32, -24.72, -21.32, -18.24, 0.000, 0.000, 0.000, 04:02:02.309
10, -20.81, -26.46, -18.53, -22.06, -25.08, -14.91, -16.67, -22.02, -18.93, -23.58, -13.84, -24.01, -25.37, -24.83, -21.10, -18.17, 0.000, 0.000, 0.000, 04:02:02.313
11, -20.68, -26.62, -18.80, -22.08, -25.01, -15.04, -16.67, -21.95, -18.93, -23.58, -13.84, -24.01, -25.37, -24.83, -21.10, -18.17, 0.000, 0.000, 0.000, 04:02:02.316
12, -20.68, -26.62, -18.80, -22.08, -25.01, -15.04, -16.67, -21.95, -18.86, -23.78, -13.95, -23.92, -25.48, -24.70, -21.37, -18.08, 0.000, 0.000, 0.000, 04:02:02.321
13, -20.79, -26.58, -18.60, -22.08, -24.92, -15.07, -16.81, -22.24, -18.86, -23.78, -13.95, -23.92, -25.48, -24.70, -21.37, -18.08, 0.000, 0.000, 0.000, 04:02:02.323
14, -20.79, -26.58, -18.60, -22.08, -24.92, -15.07, -16.81, -22.24, -18.86, -23.47, -13.75, -24.01, -25.32, -24.74, -21.19, -18.08, 0.000, 0.000, 0.000, 04:02:02.330
15, -20.81, -26.58, -18.64, -22.31, -25.01, -14.89, -16.61, -22.15, -18.86, -23.47, -13.75, -24.01, -25.32, -24.74, -21.19, -18.08, 0.000, 0.000, 0.000, 04:02:02.333
16, -20.81, -26.58, -18.64, -22.31, -25.01, -14.89, -16.61, -22.15, -18.84, -23.51, -13.86, -23.98, -25.21, -24.79, -21.21, -18.15, 0.014, 0.968, 0.314, 04:02:02.337
17, -20.63, -26.69, -18.42, -21.93, -25.08, -14.93, -16.63, -22.15, -18.84, -23.51, -13.86, -23.98, -25.21, -24.79, -21.21, -18.15, 0.000, 0.000, 0.000, 04:02:02.340
18, -20.63, -26.69, -18.42, -21.93, -25.08, -14.93, -16.63, -22.15, -19.04, -23.54, -13.72, -24.03, -25.37, -24.97, -21.21, -18.06, 0.000, 0.000, 0.000, 04:02:02.343
19, -20.76, -26.49, -18.42, -22.06, -25.01, -14.80, -16.83, -22.13, -19.04, -23.54, -13.72, -24.03, -25.37, -24.97, -21.21, -18.06, 0.000, 0.000, 0.000, 04:02:02.346
20, -20.76, -26.49, -18.42, -22.06, -25.01, -14.80, -16.83, -22.13, -18.82, -23.34, -13.93, -24.01, -25.48, -24.90, -21.14, -18.04, 0.000, 0.000, 0.000, 04:02:02.351
21, -20.63, -26.76, -18.53, -22.04, -25.10, -14.77, -16.67, -21.95, -18.82, -23.34, -13.93, -24.01, -25.48, -24.90, -21.14, -18.04, 0.000, 0.000, 0.000, 04:02:02.355
22, -20.63, -26.76, -18.53, -22.04, -25.10, -14.77, -16.67, -21.95, -18.80, -23.56, -13.88, -24.05, -25.39, -24.68, -20.92, -18.08, 0.000, 0.000, 0.000, 04:02:02.360
23, -20.65, -26.46, -18.44, -22.26, -25.08, -14.84, -16.47, -22.17, -18.80, -23.56, -13.88, -24.05, -25.39, -24.68, -20.92, -18.08, 0.000, 0.000, 0.000, 04:02:02.363
24, -20.65, -26.46, -18.44, -22.26, -25.08, -14.84, -16.47, -22.17, -18.80, -23.45, -13.68, -23.98, -25.37, -24.68, -21.28, -17.99, 0.000, 0.000, 0.000, 04:02:02.366
25, -20.85, -26.58, -18.33, -22.13, -25.08, -14.91, -16.76, -21.93, -18.80, -23.45, -13.68, -23.98, -25.37, -24.68, -21.28, -17.99, 0.000, 0.000, 0.000, 04:02:02.371
26, -20.85, -26.58, -18.33, -22.13, -25.08, -14.91, -16.76, -21.93, -18.91, -23.40, -13.88, -24.07, -25.41, -24.97, -21.21, -18.15, 0.008, 0.948, 0.296, 04:02:02.377
27, -20.68, -26.53, -18.53, -21.90, -24.90, -14.93, -16.83, -22.11, -18.91, -23.40, -13.88, -24.07, -25.41, -24.97, -21.21, -18.15, 0.000, 0.000, 0.000, 04:02:02.379
28, -20.68, -26.53, -18.53, -21.90, -24.90, -14.93, -16.83, -22.11, -18.80, -23.51, -13.93, -24.14, -25.32, -25.12, -21.21, -17.99, 0.000, 0.000, 0.000, 04:02:02.384
29, -20.65, -26.78, -18.73, -22.17, -24.83, -14.93, -16.92, -22.04, -18.80, -23.51, -13.93, -24.14, -25.32, -25.12, -21.21, -17.99, 0.000, 0.000, 0.000, 04:02:02.389
30, -20.65, -26.78, -18.73, -22.17, -24.83, -14.93, -16.92, -22.04, -19.00, -23.47, -13.88, -23.89, -25.39, -25.01, -21.39, -17.97, 0.000, 0.000, 0.000, 04:02:02.392
31, -20.79, -26.60, -18.62, -22.24, -24.90, -14.86, -16.83, -22.06, -19.00, -23.47, -13.88, -23.89, -25.39, -25.01, -21.39, -17.97, 0.000, 0.000, 0.000, 04:02:02.395
32, -20.79, -26.60, -18.62, -22.24, -24.90, -14.86, -16.83, -22.06, -18.89, -23.36, -13.77, -24.01, -25.48, -24.94, -21.28, -18.15, 0.000, 0.000, 0.000, 04:02:02.399
33, -20.70, -26.31, -18.40, -22.15, -24.97, -15.04, -16.61, -22.24, -18.89, -23.36, -13.77, -24.01, -25.48, -24.94, -21.28, -18.15, 0.000, 0.000, 0.000, 04:02:02.407
34, -20.70, -26.31, -18.40, -22.15, -24.97, -15.04, -16.61, -22.24, -18.82, -23.58, -14.01, -24.16, -25.53, -24.77, -21.01, -18.10, 0.000, 0.000, 0.000, 04:02:02.407
35, -20.76, -26.62, -18.48, -22.15, -24.86, -15.00, -16.92, -22.31, -18.82, -23.58, -14.01, -24.16, -25.53, -24.77, -21.01, -18.10, 0.000, 0.000, 0.000, 04:02:02.417
36, -20.76, -26.62, -18.48, -22.15, -24.86, -15.00, -16.92, -22.31, -18.84, -23.34, -13.97, -23.96, -25.55, -24.81, -21.30, -18.10, 0.012, 0.954, 0.306, 04:02:02.417
37, -20.52, -26.60, -18.44, -22.13, -25.03, -14.89, -16.74, -22.35, -18.84, -23.34, -13.97, -23.96, -25.55, -24.81, -21.30, -18.10, 0.000, 0.000, 0.000, 04:02:02.419
38, -20.52, -26.60, -18.44, -22.13, -25.03, -14.89, -16.74, -22.35, -18.95, -23.51, -13.90, -23.83, -25.53, -24.86, -21.03, -17.99, 0.000, 0.000, 0.000, 04:02:02.423
39, -20.92, -26.53, -18.53, -22.28, -24.79, -14.84, -16.83, -22.15, -18.95, -23.51, -13.90, -23.83, -25.53, -24.86, -21.03, -17.99, 0.000, 0.000, 0.000, 04:02:02.426
40, -20.92, -26.53, -18.53, -22.28, -24.79, -14.84, -16.83, -22.15, -18.80, -23.60, -13.95, -23.87, -25.39, -24.90, -21.23, -18.02, 0.000, 0.000, 0.000, 04:02:02.431
41, -20.88, -26.40, -18.35, -22.13, -24.88, -15.13, -16.70, -22.04, -18.80, -23.60, -13.95, -23.87, -25.39, -24.90, -21.23, -18.02, 0.000, 0.000, 0.000, 04:02:02.435
42, -20.88, -26.40, -18.35, -22.13, -24.88, -15.13, -16.70, -22.04, -18.89, -23.69, -13.81, -23.83, -25.37, -24.83, -21.35, -18.13, 0.000, 0.000, 0.000, 04:02:02.440
43, -21.03, -26.51, -18.55, -22.13, -25.15, -14.98, -16.79, -22.08, -18.89, -23.69, -13.81, -23.83, -25.37, -24.83, -21.35, -18.13, 0.000, 0.000, 0.000, 04:02:02.444
44, -21.03, -26.51, -18.55, -22.13, -25.15, -14.98, -16.79, -22.08, -18.95, -23.65, -13.99, -23.92, -25.24, -24.97, -21.37, -18.17, 0.000, 0.000, 0.000, 04:02:02.447
45, -20.90, -26.51, -18.46, -22.08, -24.90, -15.00, -16.74, -22.24, -18.95, -23.65, -13.99, -23.92, -25.24, -24.97, -21.37, -18.17, 0.000, 0.000, 0.000, 04:02:02.451
46, -20.90, -26.51, -18.46, -22.08, -24.90, -15.00, -16.74, -22.24, -18.82, -23.54, -13.79, -24.03, -25.30, -24.94, -21.19, -17.99, 0.014, 0.966, 0.306, 04:02:02.456
47, -21.01, -26.55, -18.73, -22.08, -25.10, -14.93, -16.79, -22.31, -18.82, -23.54, -13.79, -24.03, -25.30, -24.94, -21.19, -17.99, 0.000, 0.000, 0.000, 04:02:02.460
48, -21.01, -26.55, -18.73, -22.08, -25.10, -14.93, -16.79, -22.31, -18.93, -23.49, -13.86, -23.87, -25.44, -24.65, -21.17, -17.86, 0.000, 0.000, 0.000, 04:02:02.463
49, -20.79, -26.67, -18.35, -22.15, -24.97, -14.82, -16.81, -22.02, -18.93, -23.49, -13.86, -23.87, -25.44, -24.65, -21.17, -17.86, 0.000, 0.000, 0.000, 04:02:02.468
50, -20.79, -26.67, -18.35, -22.15, -24.97, -14.82, -16.81, -22.02, -18.84, -23.49, -13.84, -23.80, -25.24, -24.77, -21.14, -18.15, 0.000, 0.000, 0.000, 04:02:02.473
51, -20.85, -26.76, -18.28, -22.06, -25.01, -14.82, -16.79, -22.17, -18.84, -23.49, -13.84, -23.80, -25.24, -24.77, -21.14, -18.15, 0.000, 0.000, 0.000, 04:02:02.476
52, -20.85, -26.76, -18.28, -22.06, -25.01, -14.82, -16.79, -22.17, -18.71, -23.63, -13.81, -23.96, -25.44, -24.90, -21.06, -18.24, 0.000, 0.000, 0.000, 04:02:02.480
53, -20.74, -26.67, -18.40, -22.13, -25.17, -14.91, -16.79, -22.02, -18.71, -23.63, -13.81, -23.96, -25.44, -24.90, -21.06, -18.24, 0.000, 0.000, 0.000, 04:02:02.482
54, -20.74, -26.67, -18.40, -22.13, -25.17, -14.91, -16.79, -22.02, -18.78, -23.54, -13.95, -24.01, -25.32, -24.99, -21.37, -17.93, 0.000, 0.000, 0.000, 04:02:02.487
55, -20.99, -26.55, -18.46, -21.79, -25.03, -15.07, -16.85, -22.17, -18.78, -23.54, -13.95, -24.01, -25.32, -24.99, -21.37, -17.93, 0.000, 0.000, 0.000, 04:02:02.490
56, -20.99, -26.55, -18.46, -21.79, -25.03, -15.07, -16.85, -22.17, -19.09, -23.38, -13.63, -23.98, -25.39, -24.94, -21.01, -17.97, 0.006, 0.946, 0.286, 04:02:02.494
57, -20.74, -26.71, -18.53, -22.20, -24.94, -14.95, -16.76, -22.31, -19.09, -23.38, -13.63, -23.98, -25.39, -24.94, -21.01, -17.97, 0.000, 0.000, 0.000, 04:02:02.499
58, -20.74, -26.71, -18.53, -22.20, -24.94, -14.95, -16.76, -22.31, -18.95, -23.63, -13.86, -24.07, -25.26, -24.86, -21.23, -17.99, 0.000, 0.000, 0.000, 04:02:02.505
59, -21.03, -26.40, -18.71, -22.13, -24.97, -14.98, -16.83, -22.40, -18.95, -23.63, -13.86, -24.07, -25.26, -24.86, -21.23, -17.99, 0.000, 0.000, 0.000, 04:02:02.506
60, -21.03, -26.40, -18.71, -22.13, -24.97, -14.98, -16.83, -22.40, -18.98, -23.51, -13.66, -24.03, -25.30, -24.79, -21.06, -18.13, 0.000, 0.000, 0.000, 04:02:02.511
61, -20.83, -26.40, -18.53, -21.97, -24.88, -14.95, -16.90, -22.31, -18.98, -23.51, -13.66, -24.03, -25.30, -24.79, -21.06, -18.13, 0.000, 0.000, 0.000, 04:02:02.514
62, -20.83, -26.40, -18.53, -21.97, -24.88, -14.95, -16.90, -22.31, -18.98, -23.58, -13.86, -23.98, -25.44, -24.59, -21.57, -18.24, 0.000, 0.000, 0.000, 04:02:02.518
63, -20.68, -26.38, -18.62, -21.82, -24.99, -15.00, -16.72, -22.33, -18.98, -23.58, -13.86, -23.98, -25.44, -24.59, -21.57, -18.24, 0.000, 0.000, 0.000, 04:02:02.523
64, -20.68, -26.38, -18.62, -21.82, -24.99, -15.00, -16.72, -22.33, -19.02, -23.83, -13.99, -23.96, -25.48, -24.63, -21.26, -17.84, 0.000, 0.000, 0.000, 04:02:02.527
65, -20.92, -26.60, -18.40, -21.95, -24.94, -14.73, -16.76, -22.31, -19.02, -23.83, -13.99, -23.96, -25.48, -24.63, -21.26, -17.84, 0.000, 0.000, 0.000, 04:02:02.534
66, -20.92, -26.60, -18.40, -21.95, -24.94, -14.73, -16.76, -22.31, -18.93, -23.58, -14.06, -23.83, -25.32, -24.70, -21.32, -17.79, 0.014, 0.938, 0.286, 04:02:02.534
67, -20.54, -26.60, -18.24, -22.17, -24.97, -14.98, -16.88, -22.26, -18.93, -23.58, -14.06, -23.83, -25.32, -24.70, -21.32, -17.79, 0.000, 0.000, 0.000, 04:02:02.539
68, -20.54, -26.60, -18.24, -22.17, -24.97, -14.98, -16.88, -22.26, -18.98, -23.40, -13.75, -24.03, -25.30, -24.86, -20.97, -18.08, 0.000, 0.000, 0.000, 04:02:02.544
69, -20.76, -26.49, -18.48, -22.08, -24.92, -14.86, -16.63, -22.11, -18.98, -23.40, -13.75, -24.03, -25.30, -24.86, -20.97, -18.08, 0.000, 0.000, 0.000, 04:02:02.549
70, -20.76, -26.49, -18.48, -22.08, -24.92, -14.86, -16.63, -22.11, -18.93, -23.34, -13.84, -23.92, -25.44, -24.83, -21.08, -17.97, 0.000, 0.000, 0.000, 04:02:02.551
71, -20.74, -26.67, -18.53, -22.15, -25.06, -14.91, -16.65, -21.88, -18.93, -23.34, -13.84, -23.92, -25.44, -24.83, -21.08, -17.97, 0.000, 0.000, 0.000, 04:02:02.555
72, -20.74, -26.67, -18.53, -22.15, -25.06, -14.91, -16.65, -21.88, -18.98, -23.60, -13.88, -24.12, -25.48, -24.90, -21.41, -18.13, 0.000, 0.000, 0.000, 04:02:02.559
73, -20.81, -26.42, -18.40, -22.11, -24.90, -14.98, -16.81, -22.11, -18.98, -23.60, -13.88, -24.12, -25.48, -24.90, -21.41, -18.13, 0.000, 0.000, 0.000, 04:02:02.561
74, -20.81, -26.42, -18.40, -22.11, -24.90, -14.98, -16.81, -22.11, -18.89, -23.49, -13.77, -23.87, -25.28, -24.77, -21.17, -18.15, 0.000, 0.000, 0.000, 04:02:02.567
75, -20.54, -26.44, -18.31, -21.90, -25.10, -15.11, -16.76, -22.28, -18.89, -23.49, -13.77, -23.87, -25.28, -24.77, -21.17, -18.15, 0.012, 0.932, 0.284, 04:02:02.571
76, -20.54, -26.44, -18.31, -21.90, -25.10, -15.11, -16.76, -22.28, -19.04, -23.49, -13.79, -24.03, -25.32, -24.72, -21.28, -18.08, 0.000, 0.000, 0.000, 04:02:02.574
77, -20.72, -26.76, -18.53, -22.15, -25.06, -15.02, -16.70, -22.02, -19.04, -23.49, -13.79, -24.03, -25.32, -24.72, -21.28, -18.08, 0.000, 0.000, 0.000, 04:02:02.579
78, -20.72, -26.76, -18.53, -22.15, -25.06, -15.02, -16.70, -22.02, -18.66, -23.54, -13.93, -23.96, -25.37, -24.77, -21.10, -18.04, 0.000, 0.000, 0.000, 04:02:02.583
79, -20.72, -26.89, -18.78, -22.04, -24.97, -14.93, -16.70, -22.13, -18.66, -23.54, -13.93, -23.96, -25.37, -24.77, -21.10, -18.04, 0.000, 0.000, 0.000, 04:02:02.585
80, -20.72, -26.89, -18.78, -22.04, -24.97, -14.93, -16.70, -22.13, -18.82, -23.51, -13.95, -24.14, -25.50, -25.06, -21.14, -18.08, 0.000, 0.000, 0.000, 04:02:02.590
81, -20.81, -26.78, -18.51, -22.11, -25.01, -14.86, -16.79, -22.13, -18.82, -23.51, -13.95, -24.14, -25.50, -25.06, -21.14, -18.08, 0.000, 0.000, 0.000, 04:02:02.595
82, -20.81, -26.78, -18.51, -22.11, -25.01, -14.86, -16.79, -22.13, -18.89, -23.42, -13.79, -24.10, -25.39, -24.79, -21.37, -18.04, 0.000, 0.000, 0.000, 04:02:02.599
83, -20.90, -26.71, -18.33, -22.22, -25.15, -14.77, -16.79, -22.15, -18.89, -23.42, -13.79, -24.10, -25.39, -24.79, -21.37, -18.04, 0.000, 0.000, 0.000, 04:02:02.602
84, -20.90, -26.71, -18.33, -22.22, -25.15, -14.77, -16.79, -22.15, -18.75, -23.47, -13.88, -24.16, -25.46, -24.72, -21.30, -18.10, 0.000, 0.000, 0.000, 04:02:02.607
85, -20.63, -26.76, -18.64, -22.28, -24.86, -14.75, -16.81, -21.99, -18.75, -23.47, -13.88, -24.16, -25.46, -24.72, -21.30, -18.10, 0.014, 0.948, 0.294, 04:02:02.611
86, -20.63, -26.76, -18.64, -22.28, -24.86, -14.75, -16.81, -21.99, -18.71, -23.67, -13.86, -24.07, -25.46, -25.12, -21.14, -18.24, 0.000, 0.000, 0.000, 04:02:02.614
87, -20.88, -26.58, -18.71, -22.22, -25.08, -14.95, -16.79, -22.04, -18.71, -23.67, -13.86, -24.07, -25.46, -25.12, -21.14, -18.24, 0.000, 0.000, 0.000, 04:02:02.620
88, -20.88, -26.58, -18.71, -22.22, -25.08, -14.95, -16.79, -22.04, -18.78, -23.58, -13.81, -23.92, -25.35, -24.77, -21.23, -17.88, 0.000, 0.000, 0.000, 04:02:02.622
89, -20.90, -26.64, -18.33, -22.15, -24.86, -15.02, -16.67, -22.20, -18.78, -23.58, -13.81, -23.92, -25.35, -24.77, -21.23, -17.88, 0.000, 0.000, 0.000, 04:02:02.627
90, -20.90, -26.64, -18.33, -22.15, -24.86, -15.02, -16.67, -22.20, -18.73, -23.54, -13.84, -24.03, -25.53, -24.94, -21.14, -18.17, 0.000, 0.000, 0.000, 04:02:02.632
91, -20.61, -26.55, -18.33, -22.02, -25.08, -14.89, -16.54, -22.20, -18.73, -23.54, -13.84, -24.03, -25.53, -24.94, -21.14, -18.17, 0.000, 0.000, 0.000, 04:02:02.637
92, -20.61, -26.55, -18.33, -22.02, -25.08, -14.89, -16.54, -22.20, -18.89, -23.49, -13.95, -23.87, -25.39, -24.99, -20.88, -18.13, 0.000, 0.000, 0.000, 04:02:02.642
93, -20.59, -26.58, -18.55, -22.17, -24.86, -14.69, -16.72, -22.15, -18.89, -23.49, -13.95, -23.87, -25.39, -24.99, -20.88, -18.13, 0.000, 0.000, 0.000, 04:02:02.643
94, -20.59, -26.58, -18.55, -22.17, -24.86, -14.69, -16.72, -22.15, -18.84, -23.42, -13.93, -24.10, -25.55, -24.94, -20.99, -17.90, 0.000, 0.000, 0.000, 04:02:02.647
95, -20.94, -26.51, -18.57, -22.04, -24.88, -14.91, -16.92, -22.11, -18.84, -23.42, -13.93, -24.10, -25.55, -24.94, -20.99, -17.90, 0.006, 0.940, 0.284, 04:02:02.651
96, -20.94, -26.51, -18.57, -22.04, -24.88, -14.91, -16.92, -22.11, -19.07, -23.60, -13.88, -23.94, -25.24, -24.97, -21.12, -18.02, 0.000, 0.000, 0.000, 04:02:02.655
97, -20.83, -26.64, -18.40, -22.17, -25.15, -14.84, -16.90, -22.17, -19.07, -23.60, -13.88, -23.94, -25.24, -24.97, -21.12, -18.02, 0.000, 0.000, 0.000, 04:02:02.659
98, -20.83, -26.64, -18.40, -22.17, -25.15, -14.84, -16.90, -22.17, -18.95, -23.56, -13.95, -24.03, -25.39, -24.74, -21.23, -18.13, 0.000, 0.000, 0.000, 04:02:02.662
99, -20.72, -26.53, -18.42, -22.08, -24.94, -14.95, -16.88, -22.04, -18.95, -23.56, -13.95, -24.03, -25.39, -24.74, -21.23, -18.13, 0.000, 0.000, 0.000, 04:02:02.665
100, -20.72, -26.53, -18.42, -22.08, -24.94, -14.95, -16.88, -22.04, -18.82, -23.40, -13.99, -24.25, -25.44, -24.54, -21.44, -17.95, 0.000, 0.000, 0.000, 04:02:02.670
101, -20.54, -26.62, -18.62, -22.13, -25.01, -14.98, -16.88, -22.08, -18.82, -23.40, -13.99, -24.25, -25.44, -24.54, -21.44, -17.95, 0.000, 0.000, 0.000, 04:02:02.674
102, -20.54, -26.62, -18.62, -22.13, -25.01, -14.98, -16.88, -22.08, -18.91, -23.47, -13.93, -24.07, -25.44, -24.68, -21.23, -18.13, 0.000, 0.000, 0.000, 04:02:02.679
103, -20.61, -26.82, -18.55, -22.13, -24.92, -14.86, -16.83, -22.22, -18.91, -23.47, -13.93, -24.07, -25.44, -24.68, -21.23, -18.13, 0.000, 0.000, 0.000, 04:02:02.683
104, -20.61, -26.82, -18.55, -22.13, -24.92, -14.86, -16.83, -22.22, -18.78, -23.42, -13.95, -24.07, -25.48, -24.90, -21.17, -17.95, 0.000, 0.000, 0.000, 04:02:02.687
105, -20.61, -26.58, -18.64, -21.95, -24.94, -14.98, -16.76, -22.08, -18.78, -23.42, -13.95, -24.07, -25.48, -24.90, -21.17, -17.95, 0.010, 0.946, 0.306, 04:02:02.690
106, -20.61, -26.58, -18.64, -21.95, -24.94, -14.98, -16.76, -22.08, -18.75, -23.56, -14.01, -24.10, -25.39, -25.01, -21.23, -18.17, 0.000, 0.000, 0.000, 04:02:02.695
107, -20.79, -26.73, -18.53, -22.13, -25.17, -15.02, -16.76, -21.99, -18.75, -23.56, -14.01, -24.10, -25.39, -25.01, -21.23, -18.17, 0.000, 0.000, 0.000, 04:02:02.700
108, -20.79, -26.73, -18.53, -22.13, -25.17, -15.02, -16.76, -21.99, -18.78, -23.47, -13.88, -24.03, -25.26, -25.01, -21.26, -17.95, 0.000, 0.000, 0.000, 04:02:02.704
109, -20.74, -26.67, -18.42, -22.04, -25.01, -15.04, -16.65, -22.04, -18.78, -23.47, -13.88, -24.03, -25.26, -25.01, -21.26, -17.95, 0.000, 0.000, 0.000, 04:02:02.708
110, -20.74, -26.67, -18.42, -22.04, -25.01, -15.04, -16.65, -22.04, -18.98, -23.45, -13.90, -23.96, -25.17, -24.81, -21.30, -18.13, 0.000, 0.000, 0.000, 04:02:02.712
111, -20.79, -26.60, -18.57, -22.08, -25.10, -15.02, -16.65, -22.04, -18.98, -23.45, -13.90, -23.96, -25.17, -24.81, -21.30, -18.13, 0.000, 0.000, 0.000, 04:02:02.716
112, -20.79, -26.60, -18.57, -22.08, -25.10, -15.02, -16.65, -22.04, -18.71, -23.60, -13.99, -24.25, -25.37, -24.81, -21.37, -18.19, 0.000, 0.000, 0.000, 04:02:02.719
113, -20.68, -26.62, -18.57, -21.95, -24.99, -15.18, -16.72, -22.08, -18.71, -23.60, -13.99, -24.25, -25.37, -24.81, -21.37, -18.19, 0.000, 0.000, 0.000, 04:02:02.723
114, -20.68, -26.62, -18.57, -21.95, -24.99, -15.18, -16.72, -22.08, -18.82, -23.45, -14.06, -24.21, -25.32, -24.77, -21.03, -18.24, 0.000, 0.000, 0.000, 04:02:02.726
115, -20.52, -26.49, -18.66, -21.97, -24.79, -15.11, -16.63, -22.17, -18.82, -23.45, -14.06, -24.21, -25.32, -24.77, -21.03, -18.24, 0.014, 0.948, 0.300, 04:02:02.729
116, -20.52, -26.49, -18.66, -21.97, -24.79, -15.11, -16.63, -22.17, -18.95, -23.25, -13.95, -23.87, -25.46, -24.68, -21.30, -18.10, 0.000, 0.000, 0.000, 04:02:02.736
117, -20.88, -26.62, -18.64, -22.04, -24.83, -15.13, -16.74, -22.13, -18.95, -23.25, -13.95, -23.87, -25.46, -24.68, -21.30, -18.10, 0.000, 0.000, 0.000, 04:02:02.742
118, -20.88, -26.62, -18.64, -22.04, -24.83, -15.13, -16.74, -22.13, -18.95, -23.58, -13.81, -23.85, -25.26, -24.61, -21.21, -18.17, 0.000, 0.000, 0.000, 04:02:02.745
119, -20.59, -26.40, -18.62, -22.20, -24.79, -15.02, -16.61, -22.11, -18.95, -23.58, -13.81, -23.85, -25.26, -24.61, -21.21, -18.17, 0.000, 0.000, 0.000, 04:02:02.748
120, -20.59, -26.40, -18.62, -22.20, -24.79, -15.02, -16.61, -22.11, -19.00, -23.58, -13.88, -23.85, -25.35, -24.79, -21.08, -17.99, 0.000, 0.000, 0.000, 04:02:02.751
121, -20.81, -26.64, -18.51, -22.28, -25.01, -14.86, -16.63, -22.02, -19.00, -23.58, -13.88, -23.85, -25.35, -24.79, -21.08, -17.99, 0.000, 0.000, 0.000, 04:02:02.755
122, -20.81, -26.64, -18.51, -22.28, -25.01, -14.86, -16.63, -22.02, -18.93, -23.47, -13.90, -23.76, -25.39, -24.83, -21.03, -17.75, 0.000, 0.000, 0.000, 04:02:02.757
123, -20.90, -26.69, -18.55, -22.04, -25.06, -14.77, -16.61, -22.15, -18.93, -23.47, -13.90, -23.76, -25.39, -24.83, -21.03, -17.75, 0.000, 0.000, 0.000, 04:02:02.762
124, -20.90, -26.69, -18.55, -22.04, -25.06, -14.77, -16.61, -22.15, -18.71, -23.34, -13.70, -23.78, -25.41, -24.72, -21.26, -18.10, 0.000, 0.000, 0.000, 04:02:02.767
125, -20.85, -26.73, -18.51, -22.08, -25.10, -14.77, -16.70, -22.20, -18.71, -23.34, -13.70, -23.78, -25.41, -24.72, -21.26, -18.10, 0.004, 0.946, 0.286, 04:02:02.771
126, -20.85, -26.73, -18.51, -22.08, -25.10, -14.77, -16.70, -22.20, -18.73, -23.38, -13.90, -24.16, -25.30, -24.68, -21.37, -17.84, 0.000, 0.000, 0.000, 04:02:02.775
127, -20.68, -26.53, -18.53, -22.08, -24.99, -14.75, -16.94, -22.13, -18.73, -23.38, -13.90, -24.16, -25.30, -24.68, -21.37, -17.84, 0.000, 0.000, 0.000, 04:02:02.779
128, -20.68, -26.53, -18.53, -22.08, -24.99, -14.75, -16.94, -22.13, -18.80, -23.51, -13.97, -23.89, -25.41, -24.92, -21.06, -17.75, 0.000, 0.000, 0.000, 04:02:02.783
129, -20.68, -26.53, -18.82, -22.08, -24.90, -14.89, -16.72, -21.97, -18.80, -23.51, -13.97, -23.89, -25.41, -24.92, -21.06, -17.75, 0.000, 0.000, 0.000, 04:02:02.788
130, -20.68, -26.53, -18.82, -22.08, -24.90, -14.89, -16.72, -21.97, -18.73, -23.40, -13.84, -23.96, -25.50, -24.74, -21.21, -18.02, 0.000, 0.000, 0.000, 04:02:02.792
131, -20.90, -26.55, -18.53, -22.04, -24.81, -15.00, -16.76, -22.04, -18.73, -23.40, -13.84, -23.96, -25.50, -24.74, -21.21, -18.02, 0.000, 0.000, 0.000, 04:02:02.796
132, -20.90, -26.55, -18.53, -22.04, -24.81, -15.00, -16.76, -22.04, -19.04, -23.42, -13.77, -24.14, -25.32, -24.68, -21.01, -18.13, 0.000, 0.000, 0.000, 04:02:02.799
133, -20.99, -26.69, -18.48, -22.11, -25.21, -14.98, -16.94, -22.22, -19.04, -23.42, -13.77, -24.14, -25.32, -24.68, -21.01, -18.13, 0.000, 0.000, 0.000, 04:02:02.804
134, -20.99, -26.69, -18.48, -22.11, -25.21, -14.98, -16.94, -22.22, -18.98, -23.51, -13.70, -24.05, -25.39, -25.01, -21.32, -18.10, 0.006, 0.944, 0.282, 04:02:02.809
135, -20.83, -26.62, -18.48, -21.99, -25.06, -15.00, -16.92, -22.22, -18.98, -23.51, -13.70, -24.05, -25.39, -25.01, -21.32, -18.10, 0.000, 0.000, 0.000, 04:02:02.812
136, -20.83, -26.62, -18.48, -21.99, -25.06, -15.00, -16.92, -22.22, -18.86, -23.49, -13.75, -23.96, -25.44, -24.81, -21.28, -17.90, 0.000, 0.000, 0.000, 04:02:02.814
137, -20.83, -26.46, -18.57, -22.15, -25.10, -15.04, -16.65, -22.06, -18.86, -23.49, -13.75, -23.96, -25.44, -24.81, -21.28, -17.90, 0.000, 0.000, 0.000, 04:02:02.819
136, -20.83, -26.46, -18.57, -22.15, -25.10, -15.04, -16.65, -22.06, -18.86, -23.49, -13.75, -23.96, -25.44, -24.81, -21.28, -17.90, 0.000, 0.000, 0.000, 04:02:02.847
138, -20.83, -26.46, -18.57, -22.15, -25.10, -15.04, -16.65, -22.06, -18.69, -23.56, -13.88, -24.01, -25.30, -24.74, -21.32, -18.19, 0.000, 0.000, 0.000, 04:02:02.848
139, -20.63, -26.51, -18.48, -21.99, -25.08, -15.07, -16.70, -22.17, -18.69, -23.56, -13.88, -24.01, -25.30, -24.74, -21.32, -18.19, 0.000, 0.000, 0.000, 04:02:02.848
140, -20.63, -26.51, -18.48, -21.99, -25.08, -15.07, -16.70, -22.17, -18.75, -23.47, -14.06, -24.10, -25.15, -24.79, -21.17, -18.08, 0.000, 0.000, 0.000, 04:02:02.848
141, -20.76, -26.53, -18.53, -22.24, -24.88, -14.80, -16.90, -21.97, -18.75, -23.47, -14.06, -24.10, -25.15, -24.79, -21.17, -18.08, 0.000, 0.000, 0.000, 04:02:02.848
142, -20.76, -26.53, -18.53, -22.24, -24.88, -14.80, -16.90, -21.97, -18.69, -23.49, -13.99, -24.05, -25.37, -24.68, -21.10, -18.06, 0.000, 0.000, 0.000, 04:02:02.848
143, -20.54, -26.55, -18.44, -22.15, -24.92, -15.09, -16.74, -22.08, -18.69, -23.49, -13.99, -24.05, -25.37, -24.68, -21.10, -18.06, 0.000, 0.000, 0.000, 04:02:02.849
144, -20.54, -26.55, -18.44, -22.15, -24.92, -15.09, -16.74, -22.08, -18.73, -23.54, -14.13, -24.10, -25.28, -24.72, -21.01, -18.04, 0.012, 0.962, 0.314, 04:02:02.849
145, -21.01, -26.58, -18.51, -22.08, -24.88, -14.91, -16.79, -22.17, -18.73, -23.54, -14.13, -24.10, -25.28, -24.72, -21.01, -18.04, 0.000, 0.000, 0.000, 04:02:02.851
146, -21.01, -26.58, -18.51, -22.08, -24.88, -14.91, -16.79, -22.17, -18.93, -23.65, -13.88, -24.16, -25.10, -24.86, -21.30, -18.17, 0.000, 0.000, 0.000, 04:02:02.855
147, -20.97, -26.51, -18.64, -22.02, -24.83, -14.73, -16.65, -22.04, -18.93, -23.65, -13.88, -24.16, -25.10, -24.86, -21.30, -18.17, 0.000, 0.000, 0.000, 04:02:02.860
148, -20.97, -26.51, -18.64, -22.02, -24.83, -14.73, -16.65, -22.04, -18.89, -23.54, -13.99, -24.01, -25.50, -24.90, -21.23, -18.17, 0.000, 0.000, 0.000, 04:02:02.863
149, -20.79, -26.60, -18.53, -22.24, -25.06, -15.00, -16.79, -22.02, -18.89, -23.54, -13.99, -24.01, -25.50, -24.90, -21.23, -18.17, 0.000, 0.000, 0.000, 04:02:02.867
150, -20.79, -26.60, -18.53, -22.24, -25.06, -15.00, -16.79, -22.02, -18.78, -23.58, -13.81, -24.01, -25.53, -24.74, -21.21, -17.93, 0.000, 0.000, 0.000, 04:02:02.871
151, -20.83, -26.80, -18.57, -22.02, -25.28, -14.93, -16.65, -21.86, -18.78, -23.58, -13.81, -24.01, -25.53, -24.74, -21.21, -17.93, 0.000, 0.000, 0.000, 04:02:02.877
152, -20.83, -26.80, -18.57, -22.02, -25.28, -14.93, -16.65, -21.86, -18.98, -23.42, -14.01, -23.89, -25.46, -24.77, -20.99, -18.06, 0.000, 0.000, 0.000, 04:02:02.879
153, -20.97, -26.62, -18.64, -21.99, -24.97, -15.11, -16.83, -22.06, -18.98, -23.42, -14.01, -23.89, -25.46, -24.77, -20.99, -18.06, 0.000, 0.000, 0.000, 04:02:02.883
154, -20.97, -26.62, -18.64, -21.99, -24.97, -15.11, -16.83, -22.06, -18.89, -23.47, -14.08, -23.89, -25.30, -24.72, -21.21, -18.13, 0.018, 0.956, 0.314, 04:02:02.886
155, -20.72, -26.51, -18.71, -22.11, -24.90, -14.95, -16.74, -22.15, -18.89, -23.47, -14.08, -23.89, -25.30, -24.72, -21.21, -18.13, 0.000, 0.000, 0.000, 04:02:02.892
156, -20.72, -26.51, -18.71, -22.11, -24.90, -14.95, -16.74, -22.15, -18.82, -23.42, -13.95, -23.94, -25.21, -24.92, -21.12, -18.26, 0.000, 0.000, 0.000, 04:02:02.894
157, -20.81, -26.44, -18.53, -22.20, -25.08, -14.89, -16.92, -22.06, -18.82, -23.42, -13.95, -23.94, -25.21, -24.92, -21.12, -18.26, 0.000, 0.000, 0.000, 04:02:02.898
158, -20.81, -26.44, -18.53, -22.20, -25.08, -14.89, -16.92, -22.06, -18.73, -23.49, -13.90, -23.98, -25.19, -24.65, -21.23, -18.37, 0.000, 0.000, 0.000, 04:02:02.902
159, -20.61, -26.31, -18.48, -21.86, -25.06, -14.95, -16.92, -22.06, -18.73, -23.49, -13.90, -23.98, -25.19, -24.65, -21.23, -18.37, 0.000, 0.000, 0.000, 04:02:02.906
160, -20.61, -26.31, -18.48, -21.86, -25.06, -14.95, -16.92, -22.06, -18.37, -23.49, -13.93, -23.74, -25.24, -24.97, -21.46, -18.17, 0.000, 0.000, 0.000, 04:02:02.909
161, -20.72, -26.60, -18.46, -21.88, -24.92, -14.93, -16.58, -22.15, -18.37, -23.49, -13.93, -23.74, -25.24, -24.97, -21.46, -18.17, 0.000, 0.000, 0.000, 04:02:02.913
162, -20.72, -26.60, -18.46, -21.88, -24.92, -14.93, -16.58, -22.15, -18.71, -23.45, -13.77, -23.96, -25.41, -24.83, -21.14, -17.99, 0.000, 0.000, 0.000, 04:02:02.918
163, -20.94, -26.53, -18.46, -22.13, -25.10, -14.84, -16.90, -22.02, -18.71, -23.45, -13.77, -23.96, -25.41, -24.83, -21.14, -17.99, 0.000, 0.000, 0.000, 04:02:02.922
164, -20.94, -26.53, -18.46, -22.13, -25.10, -14.84, -16.90, -22.02, -18.75, -23.29, -13.99, -24.07, -25.32, -24.79, -21.03, -18.06, 0.008, 0.938, 0.284, 04:02:02.927
165, -20.81, -26.67, -18.42, -22.15, -24.97, -14.91, -16.74, -22.11, -18.75, -23.29, -13.99, -24.07, -25.32, -24.79, -21.03, -18.06, 0.000, 0.000, 0.000, 04:02:02.930
166, -20.81, -26.67, -18.42, -22.15, -24.97, -14.91, -16.74, -22.11, -19.04, -23.47, -14.15, -24.07, -25.35, -24.97, -21.17, -18.17, 0.000, 0.000, 0.000, 04:02:02.934
167, -20.74, -26.84, -18.57, -22.11, -25.06, -14.84, -16.79, -22.17, -19.04, -23.47, -14.15, -24.07, -25.35, -24.97, -21.17, -18.17, 0.000, 0.000, 0.000, 04:02:02.939
168, -20.74, -26.84, -18.57, -22.11, -25.06, -14.84, -16.79, -22.17, -18.95, -23.60, -13.77, -24.07, -25.48, -24.99, -21.19, -17.93, 0.000, 0.000, 0.000, 04:02:02.943
169, -20.83, -26.64, -18.66, -21.99, -25.06, -15.09, -16.74, -22.08, -18.95, -23.60, -13.77, -24.07, -25.48, -24.99, -21.19, -17.93, 0.000, 0.000, 0.000, 04:02:02.947
170, -20.83, -26.64, -18.66, -21.99, -25.06, -15.09, -16.74, -22.08, -19.16, -23.63, -13.97, -24.16, -25.26, -24.59, -21.19, -18.04, 0.000, 0.000, 0.000, 04:02:02.951
171, -20.65, -26.64, -18.55, -22.08, -24.83, -15.04, -16.70, -22.06, -19.16, -23.63, -13.97, -24.16, -25.26, -24.59, -21.19, -18.04, 0.000, 0.000, 0.000, 04:02:02.956
172, -20.65, -26.64, -18.55, -22.08, -24.83, -15.04, -16.70, -22.06, -19.13, -23.47, -13.88, -23.98, -25.30, -24.79, -21.06, -17.97, 0.000, 0.000, 0.000, 04:02:02.958
173, -20.88, -26.51, -18.44, -22.08, -24.77, -15.00, -16.81, -22.08, -19.13, -23.47, -13.88, -23.98, -25.30, -24.79, -21.06, -17.97, 0.000, 0.000, 0.000, 04:02:02.961
174, -20.88, -26.51, -18.44, -22.08, -24.77, -15.00, -16.81, -22.08, -18.86, -23.45, -14.01, -23.92, -25.48, -24.72, -21.10, -18.06, 0.020, 0.934, 0.286, 04:02:02.965
175, -20.83, -26.51, -18.51, -22.20, -24.92, -14.98, -16.81, -21.99, -18.86, -23.45, -14.01, -23.92, -25.48, -24.72, -21.10, -18.06, 0.000, 0.000, 0.000, 04:02:02.970
176, -20.83, -26.51, -18.51, -22.20, -24.92, -14.98, -16.81, -21.99, -18.64, -23.54, -13.93, -23.98, -25.53, -24.81, -21.21, -17.88, 0.000, 0.000, 0.000, 04:02:02.975
177, -20.79, -26.58, -18.60, -21.86, -25.19, -14.77, -16.74, -22.08, -18.64, -23.54, -13.93, -23.98, -25.53, -24.81, -21.21, -17.88, 0.000, 0.000, 0.000, 04:02:02.978
178, -20.79, -26.58, -18.60, -21.86, -25.19, -14.77, -16.74, -22.08, -18.93, -23.49, -14.01, -23.96, -25.30, -24.81, -21.39, -18.10, 0.000, 0.000, 0.000, 04:02:02.982
179, -20.97, -26.46, -18.42, -22.24, -25.17, -14.82, -16.83, -21.99, -18.93, -23.49, -14.01, -23.96, -25.30, -24.81, -21.39, -18.10, 0.000, 0.000, 0.000, 04:02:02.985
180, -20.97, -26.46, -18.42, -22.24, -25.17, -14.82, -16.83, -21.99, -18.84, -23.42, -13.84, -23.94, -25.26, -24.79, -21.17, -18.28, 0.000, 0.000, 0.000, 04:02:02.989
181, -20.76, -26.78, -18.57, -22.08, -25.10, -15.02, -16.74, -22.15, -18.84, -23.42, -13.84, -23.94, -25.26, -24.79, -21.17, -18.28, 0.000, 0.000, 0.000, 04:02:02.994
182, -20.76, -26.78, -18.57, -22.08, -25.10, -15.02, -16.74, -22.15, -18.80, -23.56, -14.10, -24.05, -25.46, -24.61, -21.17, -18.08, 0.000, 0.000, 0.000, 04:02:02.997
183, -20.74, -26.71, -18.42, -21.86, -24.86, -14.80, -16.70, -21.95, -18.80, -23.56, -14.10, -24.05, -25.46, -24.61, -21.17, -18.08, 0.000, 0.000, 0.000, 04:02:03.002
184, -20.74, -26.71, -18.42, -21.86, -24.86, -14.80, -16.70, -21.95, -18.95, -23.42, -14.01, -23.96, -25.50, -24.90, -21.03, -17.84, 0.018, 0.936, 0.282, 04:02:03.006
185, -20.74, -26.60, -18.66, -22.11, -25.01, -15.00, -16.83, -22.35, -18.95, -23.42, -14.01, -23.96, -25.50, -24.90, -21.03, -17.84, 0.000, 0.000, 0.000, 04:02:03.011
186, -20.74, -26.60, -18.66, -22.11, -25.01, -15.00, -16.83, -22.35, -18.91, -23.45, -14.01, -24.07, -25.32, -24.77, -21.14, -18.06, 0.000, 0.000, 0.000, 04:02:03.014
187, -20.90, -26.49, -18.42, -21.95, -25.03, -15.00, -16.72, -22.11, -18.91, -23.45, -14.01, -24.07, -25.32, -24.77, -21.14, -18.06, 0.000, 0.000, 0.000, 04:02:03.018
188, -20.90, -26.49, -18.42, -21.95, -25.03, -15.00, -16.72, -22.11, -18.80, -23.40, -14.04, -23.92, -25.37, -24.77, -21.37, -18.17, 0.000, 0.000, 0.000, 04:02:03.023
189, -20.83, -26.53, -18.55, -22.20, -24.99, -15.04, -16.85, -22.06, -18.80, -23.40, -14.04, -23.92, -25.37, -24.77, -21.37, -18.17, 0.000, 0.000, 0.000, 04:02:03.027
190, -20.83, -26.53, -18.55, -22.20, -24.99, -15.04, -16.85, -22.06, -18.89, -23.27, -13.84, -24.01, -25.21, -24.81, -21.32, -18.28, 0.000, 0.000, 0.000, 04:02:03.031
191, -20.74, -26.67, -18.66, -22.06, -25.06, -15.00, -16.74, -21.95, -18.89, -23.27, -13.84, -24.01, -25.21, -24.81, -21.32, -18.28, 0.000, 0.000, 0.000, 04:02:03.035
192, -20.74, -26.67, -18.66, -22.06, -25.06, -15.00, -16.74, -21.95, -18.80, -23.29, -13.97, -24.01, -25.44, -24.88, -21.14, -18.02, 0.000, 0.000, 0.000, 04:02:03.038
193, -20.74, -26.58, -18.51, -21.88, -25.06, -14.89, -16.83, -22.20, -18.80, -23.29, -13.97, -24.01, -25.44, -24.88, -21.14, -18.02, 0.000, 0.000, 0.000, 04:02:03.041
194, -20.74, -26.58, -18.51, -21.88, -25.06, -14.89, -16.83, -22.20, -18.84, -23.40, -13.88, -24.16, -25.48, -24.94, -21.14, -18.08, 0.018, 0.936, 0.288, 04:02:03.047
195, -20.76, -26.46, -18.60, -22.11, -24.77, -14.73, -16.92, -22.20, -18.84, -23.40, -13.88, -24.16, -25.48, -24.94, -21.14, -18.08, 0.000, 0.000, 0.000, 04:02:03.050
196, -20.76, -26.46, -18.60, -22.11, -24.77, -14.73, -16.92, -22.20, -18.98, -23.42, -13.90, -24.12, -25.55, -25.06, -21.23, -18.33, 0.000, 0.000, 0.000, 04:02:03.053
197, -20.74, -26.60, -18.62, -22.24, -25.03, -15.00, -16.99, -22.24, -18.98, -23.42, -13.90, -24.12, -25.55, -25.06, -21.23, -18.33, 0.000, 0.000, 0.000, 04:02:03.057
198, -20.74, -26.60, -18.62, -22.24, -25.03, -15.00, -16.99, -22.24, -19.00, -23.42, -13.86, -24.12, -25.17, -25.03, -21.26, -18.08, 0.000, 0.000, 0.000, 04:02:03.062
199, -20.90, -26.55, -18.46, -22.11, -25.24, -14.89, -17.01, -22.28, -19.00, -23.42, -13.86, -24.12, -25.17, -25.03, -21.26, -18.08, 0.000, 0.000, 0.000, 04:02:03.066
200, -20.90, -26.55, -18.46, -22.11, -25.24, -14.89, -17.01, -22.28, -18.82, -23.42, -13.88, -24.14, -25.37, -24.81, -21.23, -18.10, 0.000, 0.000, 0.000, 04:02:03.069
201, -20.83, -26.42, -18.51, -22.08, -24.94, -15.02, -16.92, -22.17, -18.82, -23.42, -13.88, -24.14, -25.37, -24.81, -21.23, -18.10, 0.000, 0.000, 0.000, 04:02:03.073
202, -20.83, -26.42, -18.51, -22.08, -24.94, -15.02, -16.92, -22.17, -18.82, -23.60, -13.75, -23.89, -25.46, -24.77, -21.06, -17.99, 0.000, 0.000, 0.000, 04:02:03.078
203, -20.90, -26.76, -18.44, -21.99, -25.01, -14.82, -16.74, -22.06, -18.82, -23.60, -13.75, -23.89, -25.46, -24.77, -21.06, -17.99, 0.022, 0.926, 0.278, 04:02:03.081
204, -20.90, -26.76, -18.44, -21.99, -25.01, -14.82, -16.74, -22.06, -18.86, -23.63, -13.81, -23.92, -25.41, -24.88, -20.94, -18.04, 0.000, 0.000, 0.000, 04:02:03.086
205, -20.79, -26.51, -18.44, -22.24, -24.94, -14.95, -16.74, -21.82, -18.86, -23.63, -13.81, -23.92, -25.41, -24.88, -20.94, -18.04, 0.000, 0.000, 0.000, 04:02:03.091
206, -20.79, -26.51, -18.44, -22.24, -24.94, -14.95, -16.74, -21.82, -19.04, -23.36, -13.68, -24.21, -25.32, -24.63, -21.26, -18.06, 0.000, 0.000, 0.000, 04:02:03.094
207, -20.70, -26.60, -18.40, -22.20, -25.06, -14.71, -16.83, -22.15, -19.04, -23.36, -13.68, -24.21, -25.32, -24.63, -21.26, -18.06, 0.000, 0.000, 0.000, 04:02:03.098
208, -20.70, -26.60, -18.40, -22.20, -25.06, -14.71, -16.83, -22.15, -18.75, -23.45, -13.77, -24.07, -25.37, -24.81, -21.21, -17.90, 0.000, 0.000, 0.000, 04:02:03.103
209, -20.90, -26.76, -18.57, -21.99, -25.01, -14.77, -16.79, -22.08, -18.75, -23.45, -13.77, -24.07, -25.37, -24.81, -21.21, -17.90, 0.000, 0.000, 0.000, 04:02:03.106
210, -20.90, -26.76, -18.57, -21.99, -25.01, -14.77, -16.79, -22.08, -19.00, -23.56, -13.84, -23.92, -25.37, -24.92, -21.21, -18.08, 0.000, 0.000, 0.000, 04:02:03.110
211, -20.74, -26.60, -18.48, -22.06, -25.01, -14.98, -16.94, -22.17, -19.00, -23.56, -13.84, -23.92, -25.37, -24.92, -21.21, -18.08, 0.000, 0.000, 0.000, 04:02:03.116
212, -20.74, -26.60, -18.48, -22.06, -25.01, -14.98, -16.94, -22.17, -18.91, -23.47, -13.86, -23.98, -25.44, -24.81, -21.23, -18.15, 0.000, 0.000, 0.000, 04:02:03.118
213, -20.88, -26.62, -18.48, -21.95, -25.17, -14.80, -16.94, -22.20, -18.91, -23.47, -13.86, -23.98, -25.44, -24.81, -21.23, -18.15, 0.020, 0.944, 0.298, 04:02:03.123
214, -20.88, -26.62, -18.48, -21.95, -25.17, -14.80, -16.94, -22.20, -18.80, -23.49, -13.86, -23.96, -25.35, -24.90, -21.14, -18.06, 0.000, 0.000, 0.000, 04:02:03.125
215, -20.72, -26.44, -18.42, -22.15, -25.03, -14.93, -16.94, -22.06, -18.80, -23.49, -13.86, -23.96, -25.35, -24.90, -21.14, -18.06, 0.000, 0.000, 0.000, 04:02:03.129
216, -20.72, -26.44, -18.42, -22.15, -25.03, -14.93, -16.94, -22.06, -18.98, -23.47, -13.99, -24.05, -25.55, -24.79, -21.08, -17.90, 0.000, 0.000, 0.000, 04:02:03.133
217, -20.85, -26.51, -18.51, -22.17, -25.12, -14.75, -16.83, -22.24, -18.98, -23.47, -13.99, -24.05, -25.55, -24.79, -21.08, -17.90, 0.000, 0.000, 0.000, 04:02:03.138
218, -20.85, -26.51, -18.51, -22.17, -25.12, -14.75, -16.83, -22.24, -18.95, -23.56, -13.97, -24.01, -25.46, -24.74, -21.19, -17.93, 0.000, 0.000, 0.000, 04:02:03.141
219, -20.81, -26.60, -18.24, -21.95, -25.17, -15.02, -16.83, -22.20, -18.95, -23.56, -13.97, -24.01, -25.46, -24.74, -21.19, -17.93, 0.000, 0.000, 0.000, 04:02:03.146
220, -20.81, -26.60, -18.24, -21.95, -25.17, -15.02, -16.83, -22.20, -18.71, -23.40, -14.19, -23.83, -25.48, -24.56, -21.26, -18.17, 0.000, 0.000, 0.000, 04:02:03.148
221, -20.85, -26.67, -18.48, -22.20, -25.06, -15.11, -16.63, -22.08, -18.71, -23.40, -14.19, -23.83, -25.48, -24.56, -21.26, -18.17, 0.000, 0.000, 0.000, 04:02:03.152
222, -20.85, -26.67, -18.48, -22.20, -25.06, -15.11, -16.63, -22.08, -18.93, -23.47, -14.10, -24.07, -25.28, -24.86, -21.37, -18.28, 0.000, 0.000, 0.000, 04:02:03.158
223, -20.70, -26.73, -18.31, -22.08, -24.99, -15.07, -16.83, -21.93, -18.93, -23.47, -14.10, -24.07, -25.28, -24.86, -21.37, -18.28, 0.018, 0.940, 0.294, 04:02:03.161
224, -20.70, -26.73, -18.31, -22.08, -24.99, -15.07, -16.83, -21.93, -18.95, -23.38, -13.88, -23.83, -25.46, -25.17, -21.21, -18.08, 0.000, 0.000, 0.000, 04:02:03.165
225, -20.61, -26.69, -18.51, -22.11, -24.83, -14.66, -16.76, -22.11, -18.95, -23.38, -13.88, -23.83, -25.46, -25.17, -21.21, -18.08, 0.000, 0.000, 0.000, 04:02:03.170
226, -20.61, -26.69, -18.51, -22.11, -24.83, -14.66, -16.76, -22.11, -18.91, -23.38, -13.93, -23.76, -25.30, -24.99, -21.06, -18.08, 0.000, 0.000, 0.000, 04:02:03.173
227, -20.72, -26.44, -18.55, -22.08, -25.01, -15.07, -16.76, -22.17, -18.91, -23.38, -13.93, -23.76, -25.30, -24.99, -21.06, -18.08, 0.000, 0.000, 0.000, 04:02:03.177
228, -20.72, -26.44, -18.55, -22.08, -25.01, -15.07, -16.76, -22.17, -19.04, -23.45, -13.88, -23.83, -25.26, -24.94, -21.46, -17.97, 0.000, 0.000, 0.000, 04:02:03.181
229, -20.56, -26.64, -18.82, -22.24, -24.99, -14.95, -16.88, -21.99, -19.04, -23.45, -13.88, -23.83, -25.26, -24.94, -21.46, -17.97, 0.000, 0.000, 0.000, 04:02:03.186
230, -20.56, -26.64, -18.82, -22.24, -24.99, -14.95, -16.88, -21.99, -18.75, -23.60, -13.72, -23.85, -25.37, -24.94, -21.06, -18.15, 0.000, 0.000, 0.000, 04:02:03.190
231, -20.81, -26.62, -18.55, -21.95, -24.86, -14.86, -16.74, -22.17, -18.75, -23.60, -13.72, -23.85, -25.37, -24.94, -21.06, -18.15, 0.000, 0.000, 0.000, 04:02:03.194
232, -20.81, -26.62, -18.55, -21.95, -24.86, -14.86, -16.74, -22.17, -18.91, -23.27, -13.81, -24.03, -25.32, -24.68, -21.17, -18.04, 0.000, 0.000, 0.000, 04:02:03.197
233, -20.76, -26.62, -18.46, -22.04, -24.94, -14.95, -16.72, -22.15, -18.91, -23.27, -13.81, -24.03, -25.32, -24.68, -21.17, -18.04, 0.012, 0.936, 0.278, 04:02:03.201
234, -20.76, -26.62, -18.46, -22.04, -24.94, -14.95, -16.72, -22.15, -18.78, -23.47, -13.86, -24.21, -25.44, -24.97, -21.26, -18.02, 0.000, 0.000, 0.000, 04:02:03.205
235, -20.81, -26.62, -18.46, -22.11, -24.94, -15.11, -16.63, -22.33, -18.78, -23.47, -13.86, -24.21, -25.44, -24.97, -21.26, -18.02, 0.000, 0.000, 0.000, 04:02:03.208
236, -20.81, -26.62, -18.46, -22.11, -24.94, -15.11, -16.63, -22.33, -18.86, -23.36, -13.93, -24.07, -25.30, -24.68, -21.21, -18.04, 0.000, 0.000, 0.000, 04:02:03.213
237, -20.81, -26.42, -18.53, -21.84, -25.03, -14.86, -16.85, -22.42, -18.86, -23.36, -13.93, -24.07, -25.30, -24.68, -21.21, -18.04, 0.000, 0.000, 0.000, 04:02:03.217
238, -20.81, -26.42, -18.53, -21.84, -25.03, -14.86, -16.85, -22.42, -18.82, -23.36, -13.72, -24.07, -25.28, -24.70, -21.12, -17.99, 0.000, 0.000, 0.000, 04:02:03.222
239, -20.90, -26.73, -18.51, -22.02, -25.03, -15.04, -16.83, -22.20, -18.82, -23.36, -13.72, -24.07, -25.28, -24.70, -21.12, -17.99, 0.000, 0.000, 0.000, 04:02:03.226
240, -20.90, -26.73, -18.51, -22.02, -25.03, -15.04, -16.83, -22.20, -18.95, -23.42, -13.97, -23.98, -25.32, -24.70, -21.17, -17.99, 0.000, 0.000, 0.000, 04:02:03.228
241, -20.61, -26.64, -18.69, -22.08, -25.01, -14.93, -16.74, -22.22, -18.95, -23.42, -13.97, -23.98, -25.32, -24.70, -21.17, -17.99, 0.000, 0.000, 0.000, 04:02:03.233
242, -20.61, -26.64, -18.69, -22.08, -25.01, -14.93, -16.74, -22.22, -18.86, -23.49, -13.93, -24.10, -25.46, -24.99, -21.17, -18.08, 0.000, 0.000, 0.000, 04:02:03.236
243, -20.65, -26.76, -18.44, -22.06, -24.79, -15.13, -16.76, -22.24, -18.86, -23.49, -13.93, -24.10, -25.46, -24.99, -21.17, -18.08, 0.020, 0.938, 0.298, 04:02:03.241
244, -20.65, -26.76, -18.44, -22.06, -24.79, -15.13, -16.76, -22.24, -18.84, -23.60, -13.95, -23.83, -25.32, -24.65, -21.17, -18.15, 0.000, 0.000, 0.000, 04:02:03.246
245, -20.74, -26.71, -18.60, -21.97, -24.97, -14.93, -16.79, -22.02, -18.84, -23.60, -13.95, -23.83, -25.32, -24.65, -21.17, -18.15, 0.000, 0.000, 0.000, 04:02:03.250
246, -20.74, -26.71, -18.60, -21.97, -24.97, -14.93, -16.79, -22.02, -18.82, -23.45, -13.95, -23.96, -25.44, -24.74, -21.12, -18.04, 0.000, 0.000, 0.000, 04:02:03.252
247, -20.65, -26.55, -18.64, -21.95, -25.03, -15.04, -16.79, -22.06, -18.82, -23.45, -13.95, -23.96, -25.44, -24.74, -21.12, -18.04, 0.000, 0.000, 0.000, 04:02:03.257
248, -20.65, -26.55, -18.64, -21.95, -25.03, -15.04, -16.79, -22.06, -18.93, -23.38, -13.97, -23.92, -25.39, -24.72, -21.14, -18.02, 0.000, 0.000, 0.000, 04:02:03.263
249, -20.88, -26.58, -18.42, -21.84, -24.90, -15.04, -16.79, -21.84, -18.93, -23.38, -13.97, -23.92, -25.39, -24.72, -21.14, -18.02, 0.000, 0.000, 0.000, 04:02:03.267
250, -20.88, -26.58, -18.42, -21.84, -24.90, -15.04, -16.79, -21.84, -19.02, -23.58, -13.97, -24.16, -25.48, -24.56, -21.28, -18.04, 0.000, 0.000, 0.000, 04:02:03.270
251, -20.92, -26.78, -18.53, -21.88, -24.94, -15.09, -16.54, -22.02, -19.02, -23.58, -13.97, -24.16, -25.48, -24.56, -21.28, -18.04, 0.000, 0.000, 0.000, 04:02:03.278
252, -20.92, -26.78, -18.53, -21.88, -24.94, -15.09, -16.54, -22.02, -19.04, -23.49, -13.90, -23.94, -25.39, -24.79, -21.14, -18.19, 0.000, 0.000, 0.000, 04:02:03.278
253, -20.85, -26.64, -18.53, -21.84, -24.90, -14.86, -16.81, -21.97, -19.04, -23.49, -13.90, -23.94, -25.39, -24.79, -21.14, -18.19, 0.024, 0.954, 0.304, 04:02:03.282
254, -20.85, -26.64, -18.53, -21.84, -24.90, -14.86, -16.81, -21.97, -18.80, -23.54, -13.90, -23.92, -25.28, -24.81, -21.12, -17.99, 0.000, 0.000, 0.000, 04:02:03.286
255, -20.65, -26.58, -18.48, -22.17, -25.15, -14.89, -16.85, -22.20, -18.80, -23.54, -13.90, -23.92, -25.28, -24.81, -21.12, -17.99, 0.000, 0.000, 0.000, 04:02:03.290
0, -20.65, -26.58, -18.48, -22.17, -25.15, -14.89, -16.85, -22.20, -18.80, -23.65, -13.90, -23.96, -25.50, -24.81, -21.12, -18.15, 0.000, 0.000, 0.000, 04:02:03.292
1, -20.81, -26.60, -18.51, -22.15, -24.99, -14.89, -16.85, -22.15, -18.80, -23.65, -13.90, -23.96, -25.50, -24.81, -21.12, -18.15, 0.000, 0.000, 0.000, 04:02:03.297
2, -20.81, -26.60, -18.51, -22.15, -24.99, -14.89, -16.85, -22.15, -18.73, -23.60, -13.84, -24.01, -25.28, -24.88, -21.41, -18.10, 0.000, 0.000, 0.000, 04:02:03.302
3, -20.72, -26.49, -18.73, -22.04, -25.10, -15.13, -16.72, -22.13, -18.73, -23.60, -13.84, -24.01, -25.28, -24.88, -21.41, -18.10, 0.000, 0.000, 0.000, 04:02:03.309
4, -20.72, -26.49, -18.73, -22.04, -25.10, -15.13, -16.72, -22.13, -18.73, -23.80, -14.04, -23.94, -25.41, -25.01, -21.26, -18.17, 0.000, 0.000, 0.000, 04:02:03.311
5, -20.74, -26.71, -18.55, -22.15, -24.86, -15.13, -16.63, -22.37, -18.73, -23.80, -14.04, -23.94, -25.41, -25.01, -21.26, -18.17, 0.000, 0.000, 0.000, 04:02:03.315
6, -20.74, -26.71, -18.55, -22.15, -24.86, -15.13, -16.63, -22.37, -18.69, -23.60, -13.72, -24.14, -25.44, -24.90, -21.26, -17.81, 0.018, 0.950, 0.300, 04:02:03.318
7, -20.79, -26.60, -18.64, -22.13, -24.94, -14.86, -16.63, -22.24, -18.69, -23.60, -13.72, -24.14, -25.44, -24.90, -21.26, -17.81, 0.000, 0.000, 0.000, 04:02:03.322
8, -20.79, -26.60, -18.64, -22.13, -24.94, -14.86, -16.63, -22.24, -18.75, -23.60, -13.88, -23.96, -25.17, -24.90, -21.59, -17.95, 0.000, 0.000, 0.000, 04:02:03.324
9, -20.72, -26.76, -18.31, -22.17, -24.94, -15.09, -16.50, -22.02, -18.75, -23.60, -13.88, -23.96, -25.17, -24.90, -21.59, -17.95, 0.000, 0.000, 0.000, 04:02:03.329
10, -20.72, -26.76, -18.31, -22.17, -24.94, -15.09, -16.50, -22.02, -19.04, -23.51, -13.90, -23.96, -25.37, -24.70, -21.35, -17.88, 0.000, 0.000, 0.000, 04:02:03.334
11, -20.72, -26.60, -18.40, -22.04, -25.03, -14.93, -16.88, -22.20, -19.04, -23.51, -13.90, -23.96, -25.37, -24.70, -21.35, -17.88, 0.000, 0.000, 0.000, 04:02:03.337
12, -20.72, -26.60, -18.40, -22.04, -25.03, -14.93, -16.88, -22.20, -18.95, -23.51, -13.97, -23.96, -25.21, -24.65, -20.99, -17.88, 0.000, 0.000, 0.000, 04:02:03.341
13, -20.85, -26.64, -18.26, -21.93, -25.08, -14.91, -16.70, -21.99, -18.95, -23.51, -13.97, -23.96, -25.21, -24.65, -20.99, -17.88, 0.000, 0.000, 0.000, 04:02:03.346
14, -20.85, -26.64, -18.26, -21.93, -25.08, -14.91, -16.70, -21.99, -18.89, -23.42, -13.68, -24.03, -25.17, -24.65, -21.14, -17.88, 0.000, 0.000, 0.000, 04:02:03.350
15, -20.83, -26.42, -18.46, -22.20, -25.08, -15.11, -16.65, -22.04, -18.89, -23.42, -13.68, -24.03, -25.17, -24.65, -21.14, -17.88, 0.000, 0.000, 0.000, 04:02:03.354
16, -20.83, -26.42, -18.46, -22.20, -25.08, -15.11, -16.65, -22.04, -18.84, -23.42, -14.08, -24.10, -25.28, -24.77, -21.08, -17.99, 0.010, 0.936, 0.272, 04:02:03.357
17, -20.79, -26.44, -18.66, -22.15, -25.01, -14.91, -16.61, -22.20, -18.84, -23.42, -14.08, -24.10, -25.28, -24.77, -21.08, -17.99, 0.000, 0.000, 0.000, 04:02:03.360
18, -20.79, -26.44, -18.66, -22.15, -25.01, -14.91, -16.61, -22.20, -19.18, -23.49, -13.88, -23.94, -25.28, -24.83, -21.12, -17.99, 0.000, 0.000, 0.000, 04:02:03.364
19, -21.01, -26.46, -18.46, -22.13, -24.97, -14.93, -16.79, -22.20, -19.18, -23.49, -13.88, -23.94, -25.28, -24.83, -21.12, -17.99, 0.000, 0.000, 0.000, 04:02:03.369
20, -21.01, -26.46, -18.46, -22.13, -24.97, -14.93, -16.79, -22.20, -18.89, -23.47, -14.06, -23.83, -25.39, -24.88, -21.21, -17.95, 0.000, 0.000, 0.000, 04:02:03.372
21, -20.72, -26.60, -18.66, -22.28, -24.77, -14.86, -16.72, -22.08, -18.89, -23.47, -14.06, -23.83, -25.39, -24.88, -21.21, -17.95, 0.000, 0.000, 0.000, 04:02:03.376
22, -20.72, -26.60, -18.66, -22.28, -24.77, -14.86, -16.72, -22.08, -18.71, -23.58, -13.99, -23.87, -25.59, -24.65, -21.21, -18.17, 0.000, 0.000, 0.000, 04:02:03.381
23, -20.90, -26.73, -18.53, -21.86, -24.97, -14.77, -16.65, -22.04, -18.71, -23.58, -13.99, -23.87, -25.59, -24.65, -21.21, -18.17, 0.000, 0.000, 0.000, 04:02:03.386
24, -20.90, -26.73, -18.53, -21.86, -24.97, -14.77, -16.65, -22.04, -18.80, -23.45, -13.99, -24.05, -25.59, -24.88, -21.28, -18.08, 0.000, 0.000, 0.000, 04:02:03.388
25, -20.74, -26.80, -18.44, -21.79, -24.97, -14.93, -16.85, -22.15, -18.80, -23.45, -13.99, -24.05, -25.59, -24.88, -21.28, -18.08, 0.000, 0.000, 0.000, 04:02:03.392
26, -20.74, -26.80, -18.44, -21.79, -24.97, -14.93, -16.85, -22.15, -18.89, -23.40, -13.95, -23.96, -25.28, -24.81, -21.08, -17.81, 0.014, 0.950, 0.298, 04:02:03.397
27, -20.72, -26.44, -18.55, -21.88, -25.10, -14.84, -16.65, -22.24, -18.89, -23.40, -13.95, -23.96, -25.28, -24.81, -21.08, -17.81, 0.000, 0.000, 0.000, 04:02:03.400
28, -20.72, -26.44, -18.55, -21.88, -25.10, -14.84, -16.65, -22.24, -18.86, -23.49, -14.22, -23.92, -25.37, -24.88, -21.19, -18.15, 0.000, 0.000, 0.000, 04:02:03.405
29, -20.70, -26.49, -18.64, -21.95, -24.99, -14.84, -16.47, -22.04, -18.86, -23.49, -14.22, -23.92, -25.37, -24.88, -21.19, -18.15, 0.000, 0.000, 0.000, 04:02:03.409
30, -20.70, -26.49, -18.64, -21.95, -24.99, -14.84, -16.47, -22.04, -18.93, -23.51, -13.88, -24.10, -25.21, -24.90, -21.10, -17.95, 0.000, 0.000, 0.000, 04:02:03.414
31, -20.70, -26.53, -18.40, -22.15, -24.99, -15.07, -16.72, -22.08, -18.93, -23.51, -13.88, -24.10, -25.21, -24.90, -21.10, -17.95, 0.000, 0.000, 0.000, 04:02:03.417
32, -20.70, -26.53, -18.40, -22.15, -24.99, -15.07, -16.72, -22.08, -18.75, -23.49, -13.81, -23.78, -25.32, -24.94, -21.21, -17.99, 0.000, 0.000, 0.000, 04:02:03.422
33, -20.88, -26.55, -18.60, -22.06, -25.17, -15.07, -16.67, -22.13, -18.75, -23.49, -13.81, -23.78, -25.32, -24.94, -21.21, -17.99, 0.000, 0.000, 0.000, 04:02:03.424
34, -20.88, -26.55, -18.60, -22.06, -25.17, -15.07, -16.67, -22.13, -19.11, -23.45, -13.79, -23.98, -25.41, -24.81, -21.39, -18.17, 0.000, 0.000, 0.000, 04:02:03.431
35, -20.59, -26.53, -18.40, -22.04, -24.99, -15.07, -16.63, -22.06, -19.11, -23.45, -13.79, -23.98, -25.41, -24.81, -21.39, -18.17, 0.000, 0.000, 0.000, 04:02:03.433
36, -20.59, -26.53, -18.40, -22.04, -24.99, -15.07, -16.63, -22.06, -19.13, -23.40, -13.93, -24.14, -25.21, -24.92, -21.23, -18.35, 0.014, 0.934, 0.296, 04:02:03.437
37, -20.88, -26.71, -18.55, -22.13, -25.12, -14.86, -16.83, -21.95, -19.13, -23.40, -13.93, -24.14, -25.21, -24.92, -21.23, -18.35, 0.000, 0.000, 0.000, 04:02:03.440
38, -20.88, -26.71, -18.55, -22.13, -25.12, -14.86, -16.83, -21.95, -18.86, -23.36, -14.01, -23.92, -25.30, -24.68, -21.32, -18.06, 0.000, 0.000, 0.000, 04:02:03.443
39, -20.52, -26.71, -18.71, -22.04, -24.94, -15.11, -16.83, -22.02, -18.86, -23.36, -14.01, -23.92, -25.30, -24.68, -21.32, -18.06, 0.000, 0.000, 0.000, 04:02:03.447
40, -20.52, -26.71, -18.71, -22.04, -24.94, -15.11, -16.83, -22.02, -19.07, -23.54, -14.04, -23.98, -25.50, -24.97, -21.17, -18.10, 0.000, 0.000, 0.000, 04:02:03.453
41, -20.83, -26.51, -18.44, -22.02, -24.74, -14.91, -16.67, -21.99, -19.07, -23.54, -14.04, -23.98, -25.50, -24.97, -21.17, -18.10, 0.000, 0.000, 0.000, 04:02:03.458
42, -20.83, -26.51, -18.44, -22.02, -24.74, -14.91, -16.67, -21.99, -18.95, -23.45, -14.01, -24.05, -25.21, -24.70, -21.12, -17.99, 0.000, 0.000, 0.000, 04:02:03.461
43, -20.76, -26.58, -18.60, -22.06, -24.97, -14.93, -16.67, -21.93, -18.95, -23.45, -14.01, -24.05, -25.21, -24.70, -21.12, -17.99, 0.000, 0.000, 0.000, 04:02:03.465
44, -20.76, -26.58, -18.60, -22.06, -24.97, -14.93, -16.67, -21.93, -18.84, -23.56, -13.90, -24.12, -25.37, -24.86, -21.35, -17.97, 0.000, 0.000, 0.000, 04:02:03.469
45, -20.79, -26.53, -18.55, -22.40, -24.83, -15.09, -16.88, -22.13, -18.84, -23.56, -13.90, -24.12, -25.37, -24.86, -21.35, -17.97, 0.000, 0.000, 0.000, 04:02:03.472
46, -20.79, -26.53, -18.55, -22.40, -24.83, -15.09, -16.88, -22.13, -19.02, -23.27, -13.99, -24.07, -25.37, -24.54, -21.14, -18.10, 0.012, 0.936, 0.282, 04:02:03.476
47, -20.47, -26.73, -18.55, -22.35, -25.08, -15.11, -16.83, -22.15, -19.02, -23.27, -13.99, -24.07, -25.37, -24.54, -21.14, -18.10, 0.000, 0.000, 0.000, 04:02:03.480
48, -20.47, -26.73, -18.55, -22.35, -25.08, -15.11, -16.83, -22.15, -18.89, -23.42, -13.93, -23.76, -25.32, -24.92, -21.03, -18.19, 0.000, 0.000, 0.000, 04:02:03.485
49, -20.76, -26.62, -18.62, -22.22, -25.12, -14.93, -16.70, -22.06, -18.89, -23.42, -13.93, -23.76, -25.32, -24.92, -21.03, -18.19, 0.000, 0.000, 0.000, 04:02:03.489
50, -20.76, -26.62, -18.62, -22.22, -25.12, -14.93, -16.70, -22.06, -18.84, -23.54, -13.95, -23.94, -25.48, -24.92, -21.21, -17.86, 0.000, 0.000, 0.000, 04:02:03.492
51, -20.83, -26.51, -18.44, -21.86, -24.97, -14.91, -16.88, -22.20, -18.84, -23.54, -13.95, -23.94, -25.48, -24.92, -21.21, -17.86, 0.000, 0.000, 0.000, 04:02:03.496
52, -20.83, -26.51, -18.44, -21.86, -24.97, -14.91, -16.88, -22.20, -18.91, -23.34, -13.97, -23.76, -25.41, -24.81, -21.23, -18.28, 0.000, 0.000, 0.000, 04:02:03.502
53, -20.85, -26.76, -18.48, -22.20, -25.19, -14.93, -16.79, -22.15, -18.91, -23.34, -13.97, -23.76, -25.41, -24.81, -21.23, -18.28, 0.000, 0.000, 0.000, 04:02:03.505
54, -20.85, -26.76, -18.48, -22.20, -25.19, -14.93, -16.79, -22.15, -18.93, -23.51, -14.06, -24.10, -25.46, -24.86, -21.21, -18.35, 0.000, 0.000, 0.000, 04:02:03.508
55, -20.88, -26.71, -18.66, -22.31, -24.97, -15.00, -16.74, -22.13, -18.93, -23.51, -14.06, -24.10, -25.46, -24.86, -21.21, -18.35, 0.000, 0.000, 0.000, 04:02:03.513
56, -20.88, -26.71, -18.66, -22.31, -24.97, -15.00, -16.74, -22.13, -18.89, -23.60, -14.06, -24.05, -25.37, -25.10, -21.26, -18.35, 0.010, 0.940, 0.298, 04:02:03.516
57, -21.12, -26.73, -18.57, -22.04, -25.06, -14.95, -16.83, -21.99, -18.89, -23.60, -14.06, -24.05, -25.37, -25.10, -21.26, -18.35, 0.000, 0.000, 0.000, 04:02:03.521
58, -21.12, -26.73, -18.57, -22.04, -25.06, -14.95, -16.83, -21.99, -18.89, -23.31, -13.95, -24.03, -25.21, -24.99, -21.26, -18.22, 0.000, 0.000, 0.000, 04:02:03.524
59, -20.81, -26.49, -18.51, -22.24, -25.19, -14.93, -16.50, -21.93, -18.89, -23.31, -13.95, -24.03, -25.21, -24.99, -21.26, -18.22, 0.000, 0.000, 0.000, 04:02:03.528
60, -20.81, -26.49, -18.51, -22.24, -25.19, -14.93, -16.50, -21.93, -18.86, -23.27, -13.93, -23.98, -25.39, -24.92, -21.03, -18.08, 0.000, 0.000, 0.000, 04:02:03.532
61, -20.70, -26.53, -18.57, -22.06, -24.97, -15.02, -16.63, -22.08, -18.86, -23.27, -13.93, -23.98, -25.39, -24.92, -21.03, -18.08, 0.000, 0.000, 0.000, 04:02:03.536
62, -20.70, -26.53, -18.57, -22.06, -24.97, -15.02, -16.63, -22.08, -18.91, -23.45, -13.84, -23.92, -25.28, -24.83, -21.30, -18.08, 0.000, 0.000, 0.000, 04:02:03.541
63, -20.74, -26.55, -18.42, -21.88, -24.79, -14.95, -16.83, -22.35, -18.91, -23.45, -13.84, -23.92, -25.28, -24.83, -21.30, -18.08, 0.000, 0.000, 0.000, 04:02:03.545
64, -20.74, -26.55, -18.42, -21.88, -24.79, -14.95, -16.83, -22.35, -18.82, -23.56, -13.70, -23.94, -25.39, -24.74, -21.26, -17.81, 0.000, 0.000, 0.000, 04:02:03.549
65, -20.72, -26.60, -18.57, -22.02, -25.06, -15.29, -16.74, -22.20, -18.82, -23.56, -13.70, -23.94, -25.39, -24.74, -21.26, -17.81, 0.008, 0.948, 0.304, 04:02:03.553
66, -20.72, -26.60, -18.57, -22.02, -25.06, -15.29, -16.74, -22.20, -19.02, -23.42, -13.93, -24.01, -25.44, -24.70, -21.32, -18.15, 0.000, 0.000, 0.000, 04:02:03.556
67, -20.50, -26.71, -18.53, -21.97, -24.90, -15.02, -16.67, -22.06, -19.02, -23.42, -13.93, -24.01, -25.44, -24.70, -21.32, -18.15, 0.000, 0.000, 0.000, 04:02:03.560
68, -20.50, -26.71, -18.53, -21.97, -24.90, -15.02, -16.67, -22.06, -19.11, -23.42, -14.22, -24.12, -25.41, -24.72, -21.12, -18.37, 0.000, 0.000, 0.000, 04:02:03.564
69, -20.70, -26.71, -18.46, -22.22, -24.81, -14.93, -16.74, -22.24, -19.11, -23.42, -14.22, -24.12, -25.41, -24.72, -21.12, -18.37, 0.000, 0.000, 0.000, 04:02:03.569
70, -20.70, -26.71, -18.46, -22.22, -24.81, -14.93, -16.74, -22.24, -18.78, -23.45, -14.01, -23.83, -25.66, -24.88, -21.37, -18.04, 0.000, 0.000, 0.000, 04:02:03.573
71, -20.61, -26.49, -18.44, -22.13, -24.99, -14.84, -16.56, -22.24, -18.78, -23.45, -14.01, -23.83, -25.66, -24.88, -21.37, -18.04, 0.000, 0.000, 0.000, 04:02:03.576
72, -20.61, -26.49, -18.44, -22.13, -24.99, -14.84, -16.56, -22.24, -18.89, -23.36, -13.95, -23.92, -25.53, -25.08, -21.26, -18.04, 0.000, 0.000, 0.000, 04:02:03.580
73, -20.65, -26.55, -18.57, -21.90, -25.01, -14.75, -16.74, -22.11, -18.89, -23.36, -13.95, -23.92, -25.53, -25.08, -21.26, -18.04, 0.000, 0.000, 0.000, 04:02:03.584
74, -20.65, -26.55, -18.57, -21.90, -25.01, -14.75, -16.74, -22.11, -18.91, -23.54, -13.99, -23.92, -25.30, -24.97, -21.39, -18.31, 0.000, 0.000, 0.000, 04:02:03.588
75, -20.79, -26.69, -18.62, -22.15, -24.83, -14.86, -16.70, -22.24, -18.91, -23.54, -13.99, -23.92, -25.30, -24.97, -21.39, -18.31, 0.020, 0.946, 0.306, 04:02:03.592
76, -20.79, -26.69, -18.62, -22.15, -24.83, -14.86, -16.70, -22.24, -18.91, -23.42, -13.81, -24.16, -25.15, -24.90, -21.35, -18.42, 0.000, 0.000, 0.000, 04:02:03.598
77, -20.76, -26.58, -18.37, -22.15, -24.99, -14.93, -16.79, -22.20, -18.91, -23.42, -13.81, -24.16, -25.15, -24.90, -21.35, -18.42, 0.000, 0.000, 0.000, 04:02:03.603
78, -20.76, -26.58, -18.37, -22.15, -24.99, -14.93, -16.79, -22.20, -18.93, -23.40, -14.13, -24.05, -25.39, -25.15, -21.19, -18.17, 0.000, 0.000, 0.000, 04:02:03.605
79, -20.85, -26.67, -18.28, -22.15, -24.92, -15.00, -16.85, -22.13, -18.93, -23.40, -14.13, -24.05, -25.39, -25.15, -21.19, -18.17, 0.000, 0.000, 0.000, 04:02:03.609
80, -20.85, -26.67, -18.28, -22.15, -24.92, -15.00, -16.85, -22.13, -18.66, -23.47, -13.86, -24.05, -25.28, -24.81, -21.03, -18.13, 0.000, 0.000, 0.000, 04:02:03.613
81, -20.81, -26.53, -18.44, -22.04, -25.15, -15.07, -16.76, -21.97, -18.66, -23.47, -13.86, -24.05, -25.28, -24.81, -21.03, -18.13, 0.000, 0.000, 0.000, 04:02:03.617
82, -20.81, -26.53, -18.44, -22.04, -25.15, -15.07, -16.76, -21.97, -18.75, -23.54, -13.84, -23.94, -25.28, -24.94, -21.10, -18.04, 0.000, 0.000, 0.000, 04:02:03.620
83, -20.97, -26.51, -18.62, -22.28, -24.94, -15.02, -16.76, -22.11, -18.75, -23.54, -13.84, -23.94, -25.28, -24.94, -21.10, -18.04, 0.000, 0.000, 0.000, 04:02:03.626
84, -20.97, -26.51, -18.62, -22.28, -24.94, -15.02, -16.76, -22.11, -18.95, -23.47, -13.90, -24.12, -25.32, -24.97, -21.26, -18.02, 0.000, 0.000, 0.000, 04:02:03.629
85, -20.92, -26.55, -18.44, -21.99, -25.03, -14.84, -16.54, -22.06, -18.95, -23.47, -13.90, -24.12, -25.32, -24.97, -21.26, -18.02, 0.008, 0.928, 0.298, 04:02:03.632
86, -20.92, -26.55, -18.44, -21.99, -25.03, -14.84, -16.54, -22.06, -18.80, -23.20, -13.90, -23.80, -25.35, -24.92, -21.37, -18.04, 0.000, 0.000, 0.000, 04:02:03.636
87, -20.85, -26.55, -18.48, -22.24, -25.01, -14.84, -16.63, -22.08, -18.80, -23.20, -13.90, -23.80, -25.35, -24.92, -21.37, -18.04, 0.000, 0.000, 0.000, 04:02:03.640
88, -20.85, -26.55, -18.48, -22.24, -25.01, -14.84, -16.63, -22.08, -18.80, -23.36, -13.61, -24.01, -25.35, -24.94, -20.90, -17.97, 0.000, 0.000, 0.000, 04:02:03.644
89, -20.81, -26.44, -18.44, -22.08, -24.90, -14.84, -16.72, -22.04, -18.80, -23.36, -13.61, -24.01, -25.35, -24.94, -20.90, -17.97, 0.000, 0.000, 0.000, 04:02:03.648
90, -20.81, -26.44, -18.44, -22.08, -24.90, -14.84, -16.72, -22.04, -18.98, -23.56, -13.93, -23.83, -25.30, -24.92, -21.12, -18.10, 0.000, 0.000, 0.000, 04:02:03.652
91, -20.76, -26.60, -18.31, -22.17, -24.77, -14.84, -16.58, -22.02, -18.98, -23.56, -13.93, -23.83, -25.30, -24.92, -21.12, -18.10, 0.000, 0.000, 0.000, 04:02:03.656
92, -20.76, -26.60, -18.31, -22.17, -24.77, -14.84, -16.58, -22.02, -18.98, -23.47, -14.01, -23.96, -25.35, -24.81, -21.14, -17.93, 0.000, 0.000, 0.000, 04:02:03.659
93, -20.68, -26.73, -18.44, -22.06, -24.83, -14.84, -16.67, -22.04, -18.98, -23.47, -14.01, -23.96, -25.35, -24.81, -21.14, -17.93, 0.000, 0.000, 0.000, 04:02:03.665
94, -20.68, -26.73, -18.44, -22.06, -24.83, -14.84, -16.67, -22.04, -19.02, -23.42, -13.93, -23.89, -25.35, -24.79, -21.12, -17.97, 0.000, 0.000, 0.000, 04:02:03.668
95, -20.74, -26.49, -18.62, -22.13, -25.03, -15.09, -16.54, -22.22, -19.02, -23.42, -13.93, -23.89, -25.35, -24.79, -21.12, -17.97, 0.008, 0.940, 0.306, 04:02:03.672
96, -20.74, -26.49, -18.62, -22.13, -25.03, -15.09, -16.54, -22.22, -19.09, -23.69, -13.93, -23.92, -25.28, -24.90, -21.23, -18.17, 0.000, 0.000, 0.000, 04:02:03.677
97, -20.70, -26.62, -18.57, -22.24, -24.99, -15.02, -16.72, -21.99, -19.09, -23.69, -13.93, -23.92, -25.28, -24.90, -21.23, -18.17, 0.000, 0.000, 0.000, 04:02:03.680
98, -20.70, -26.62, -18.57, -22.24, -24.99, -15.02, -16.72, -21.99, -19.04, -23.34, -13.93, -23.85, -25.44, -24.86, -21.30, -17.99, 0.000, 0.000, 0.000, 04:02:03.684
99, -20.92, -26.55, -18.42, -22.02, -25.01, -14.95, -16.76, -22.06, -19.04, -23.34, -13.93, -23.85, -25.44, -24.86, -21.30, -17.99, 0.000, 0.000, 0.000, 04:02:03.687
100, -20.92, -26.55, -18.42, -22.02, -25.01, -14.95, -16.76, -22.06, -18.86, -23.42, -13.93, -24.14, -25.46, -24.90, -21.19, -17.84, 0.000, 0.000, 0.000, 04:02:03.692
101, -20.70, -26.53, -18.60, -22.15, -24.90, -14.91, -16.65, -22.11, -18.86, -23.42, -13.93, -24.14, -25.46, -24.90, -21.19, -17.84, 0.000, 0.000, 0.000, 04:02:03.696
102, -20.70, -26.53, -18.60, -22.15, -24.90, -14.91, -16.65, -22.11, -18.84, -23.54, -13.79, -23.92, -25.26, -24.83, -21.21, -18.08, 0.000, 0.000, 0.000, 04:02:03.701
103, -20.74, -26.58, -18.15, -22.11, -25.17, -14.84, -16.96, -22.37, -18.84, -23.54, -13.79, -23.92, -25.26, -24.83, -21.21, -18.08, 0.000, 0.000, 0.000, 04:02:03.704
104, -20.74, -26.58, -18.15, -22.11, -25.17, -14.84, -16.96, -22.37, -18.73, -23.13, -13.88, -24.14, -25.39, -24.99, -21.14, -18.17, 0.000, 0.000, 0.000, 04:02:03.708
105, -20.83, -26.62, -18.66, -22.15, -24.83, -15.15, -16.70, -22.06, -18.73, -23.13, -13.88, -24.14, -25.39, -24.99, -21.14, -18.17, 0.014, 0.954, 0.306, 04:02:03.712
106, -20.83, -26.62, -18.66, -22.15, -24.83, -15.15, -16.70, -22.06, -18.80, -23.56, -13.95, -23.87, -25.53, -24.56, -21.01, -18.04, 0.000, 0.000, 0.000, 04:02:03.715
107, -20.88, -26.62, -18.60, -22.06, -24.83, -14.80, -16.56, -21.99, -18.80, -23.56, -13.95, -23.87, -25.53, -24.56, -21.01, -18.04, 0.000, 0.000, 0.000, 04:02:03.720
108, -20.88, -26.62, -18.60, -22.06, -24.83, -14.80, -16.56, -21.99, -18.93, -23.60, -13.84, -24.01, -25.53, -24.90, -21.17, -17.99, 0.000, 0.000, 0.000, 04:02:03.724
109, -20.79, -26.62, -18.64, -22.04, -25.06, -14.93, -16.67, -21.97, -18.93, -23.60, -13.84, -24.01, -25.53, -24.90, -21.17, -17.99, 0.000, 0.000, 0.000, 04:02:03.728
110, -20.79, -26.62, -18.64, -22.04, -25.06, -14.93, -16.67, -21.97, -18.98, -23.47, -13.88, -23.85, -25.24, -24.74, -21.30, -17.90, 0.000, 0.000, 0.000, 04:02:03.732
111, -20.79, -26.46, -18.53, -21.86, -24.99, -14.91, -16.85, -22.04, -18.98, -23.47, -13.88, -23.85, -25.24, -24.74, -21.30, -17.90, 0.000, 0.000, 0.000, 04:02:03.735
112, -20.79, -26.46, -18.53, -21.86, -24.99, -14.91, -16.85, -22.04, -18.80, -23.36, -13.95, -23.89, -25.50, -24.81, -21.37, -18.04, 0.000, 0.000, 0.000, 04:02:03.740
113, -20.76, -26.58, -18.57, -22.26, -25.10, -15.00, -16.85, -22.04, -18.80, -23.36, -13.95, -23.89, -25.50, -24.81, -21.37, -18.04, 0.000, 0.000, 0.000, 04:02:03.743
114, -20.76, -26.58, -18.57, -22.26, -25.10, -15.00, -16.85, -22.04, -18.86, -23.45, -14.04, -23.89, -25.15, -24.86, -21.10, -18.02, 0.000, 0.000, 0.000, 04:02:03.747
115, -20.90, -26.73, -18.62, -22.08, -25.12, -15.02, -16.63, -22.22, -18.86, -23.45, -14.04, -23.89, -25.15, -24.86, -21.10, -18.02, 0.008, 0.946, 0.284, 04:02:03.752
116, -20.90, -26.73, -18.62, -22.08, -25.12, -15.02, -16.63, -22.22, -18.82, -23.45, -13.84, -23.83, -25.28, -24.92, -21.08, -18.19, 0.000, 0.000, 0.000, 04:02:03.756
117, -20.90, -26.44, -18.75, -22.02, -24.94, -14.93, -16.79, -22.24, -18.82, -23.45, -13.84, -23.83, -25.28, -24.92, -21.08, -18.19, 0.000, 0.000, 0.000, 04:02:03.762
118, -20.90, -26.44, -18.75, -22.02, -24.94, -14.93, -16.79, -22.24, -18.84, -23.31, -14.01, -24.14, -25.46, -24.99, -21.21, -18.33, 0.000, 0.000, 0.000, 04:02:03.765
119, -20.65, -26.60, -18.66, -21.88, -24.97, -14.89, -16.79, -21.99, -18.84, -23.31, -14.01, -24.14, -25.46, -24.99, -21.21, -18.33, 0.000, 0.000, 0.000, 04:02:03.768
120, -20.65, -26.60, -18.66, -21.88, -24.97, -14.89, -16.79, -21.99, -18.75, -23.27, -13.90, -23.96, -25.66, -24.83, -21.01, -18.31, 0.000, 0.000, 0.000, 04:02:03.771
121, -20.68, -26.42, -18.46, -21.90, -24.90, -14.89, -16.92, -22.24, -18.75, -23.27, -13.90, -23.96, -25.66, -24.83, -21.01, -18.31, 0.000, 0.000, 0.000, 04:02:03.775
122, -20.68, -26.42, -18.46, -21.90, -24.90, -14.89, -16.92, -22.24, -18.86, -23.47, -13.97, -23.96, -25.44, -24.79, -21.08, -18.06, 0.000, 0.000, 0.000, 04:02:03.781
123, -20.79, -26.46, -18.57, -22.17, -24.99, -14.77, -16.76, -21.93, -18.86, -23.47, -13.97, -23.96, -25.44, -24.79, -21.08, -18.06, 0.000, 0.000, 0.000, 04:02:03.784
124, -20.79, -26.46, -18.57, -22.17, -24.99, -14.77, -16.76, -21.93, -18.89, -23.40, -13.97, -24.01, -25.28, -24.88, -21.37, -17.97, 0.016, 0.944, 0.286, 04:02:03.789
125, -20.72, -26.71, -18.40, -22.11, -24.99, -15.02, -16.61, -22.02, -18.89, -23.40, -13.97, -24.01, -25.28, -24.88, -21.37, -17.97, 0.000, 0.000, 0.000, 04:02:03.791
126, -20.72, -26.71, -18.40, -22.11, -24.99, -15.02, -16.61, -22.02, -18.80, -23.47, -13.97, -23.98, -25.41, -24.83, -21.32, -17.84, 0.000, 0.000, 0.000, 04:02:03.795
127, -20.79, -26.49, -18.48, -22.22, -24.97, -14.93, -16.83, -22.28, -18.80, -23.47, -13.97, -23.98, -25.41, -24.83, -21.32, -17.84, 0.000, 0.000, 0.000, 04:02:03.800
128, -20.79, -26.49, -18.48, -22.22, -24.97, -14.93, -16.83, -22.28, -18.84, -23.51, -13.86, -24.05, -25.37, -24.79, -21.19, -18.10, 0.000, 0.000, 0.000, 04:02:03.803
129, -20.72, -26.44, -18.48, -22.02, -24.86, -14.93, -16.90, -22.11, -18.84, -23.51, -13.86, -24.05, -25.37, -24.79, -21.19, -18.10, 0.000, 0.000, 0.000, 04:02:03.808
130, -20.72, -26.44, -18.48, -22.02, -24.86, -14.93, -16.90, -22.11, -18.91, -23.58, -13.93, -23.92, -25.41, -24.79, -21.26, -18.19, 0.000, 0.000, 0.000, 04:02:03.813
131, -20.56, -26.64, -18.46, -22.15, -25.03, -14.86, -16.52, -22.24, -18.91, -23.58, -13.93, -23.92, -25.41, -24.79, -21.26, -18.19, 0.000, 0.000, 0.000, 04:02:03.816
132, -20.56, -26.64, -18.46, -22.15, -25.03, -14.86, -16.52, -22.24, -18.86, -23.63, -13.79, -23.94, -25.46, -24.74, -21.17, -18.26, 0.000, 0.000, 0.000, 04:02:03.820
133, -20.76, -26.60, -18.62, -22.28, -24.86, -14.91, -16.74, -22.13, -18.86, -23.63, -13.79, -23.94, -25.46, -24.74, -21.17, -18.26, 0.000, 0.000, 0.000, 04:02:03.823
134, -20.76, -26.60, -18.62, -22.28, -24.86, -14.91, -16.74, -22.13, -18.91, -23.49, -13.72, -24.01, -25.50, -24.92, -21.35, -18.26, 0.016, 0.946, 0.290, 04:02:03.827
135, -20.90, -26.46, -18.46, -22.31, -25.03, -14.95, -16.92, -22.11, -18.91, -23.49, -13.72, -24.01, -25.50, -24.92, -21.35, -18.26, 0.000, 0.000, 0.000, 04:02:03.831
136, -20.90, -26.46, -18.46, -22.31, -25.03, -14.95, -16.92, -22.11, -18.95, -23.67, -13.84, -23.96, -25.30, -24.97, -21.21, -18.17, 0.000, 0.000, 0.000, 04:02:03.837
137, -20.74, -26.44, -18.37, -22.17, -25.10, -15.00, -16.72, -22.26, -18.95, -23.67, -13.84, -23.96, -25.30, -24.97, -21.21, -18.17, 0.000, 0.000, 0.000, 04:02:03.840
138, -20.74, -26.44, -18.37, -22.17, -25.10, -15.00, -16.72, -22.26, -18.98, -23.45, -13.93, -24.18, -25.21, -24.83, -21.03, -18.22, 0.000, 0.000, 0.000, 04:02:03.845
139, -20.70, -26.44, -18.64, -22.17, -25.08, -15.04, -16.85, -22.02, -18.98, -23.45, -13.93, -24.18, -25.21, -24.83, -21.03, -18.22, 0.000, 0.000, 0.000, 04:02:03.847
140, -20.70, -26.44, -18.64, -22.17, -25.08, -15.04, -16.85, -22.02, -18.93, -23.58, -13.93, -23.98, -25.26, -24.83, -20.99, -18.31, 0.000, 0.000, 0.000, 04:02:03.852
141, -20.79, -26.51, -18.60, -22.11, -25.03, -15.07, -16.92, -22.22, -18.93, -23.58, -13.93, -23.98, -25.26, -24.83, -20.99, -18.31, 0.000, 0.000, 0.000, 04:02:03.855
142, -20.79, -26.51, -18.60, -22.11, -25.03, -15.07, -16.92, -22.22, -18.75, -23.56, -13.84, -24.14, -25.59, -25.01, -21.17, -18.17, 0.000, 0.000, 0.000, 04:02:03.860
143, -20.81, -26.44, -18.46, -22.15, -25.06, -14.93, -16.74, -21.90, -18.75, -23.56, -13.84, -24.14, -25.59, -25.01, -21.17, -18.17, 0.000, 0.000, 0.000, 04:02:03.866
144, -20.81, -26.44, -18.46, -22.15, -25.06, -14.93, -16.74, -21.90, -19.02, -23.31, -13.99, -23.76, -25.44, -25.01, -21.32, -18.02, 0.012, 0.948, 0.296, 04:02:03.868
145, -20.92, -26.58, -18.44, -22.17, -24.90, -14.98, -16.63, -22.13, -19.02, -23.31, -13.99, -23.76, -25.44, -25.01, -21.32, -18.02, 0.000, 0.000, 0.000, 04:02:03.873
146, -20.92, -26.58, -18.44, -22.17, -24.90, -14.98, -16.63, -22.13, -18.80, -23.40, -13.88, -23.94, -25.41, -24.94, -21.28, -18.08, 0.000, 0.000, 0.000, 04:02:03.875
147, -21.03, -26.42, -18.48, -22.26, -25.03, -14.93, -16.88, -21.99, -18.80, -23.40, -13.88, -23.94, -25.41, -24.94, -21.28, -18.08, 0.000, 0.000, 0.000, 04:02:03.880
148, -21.03, -26.42, -18.48, -22.26, -25.03, -14.93, -16.88, -21.99, -18.75, -23.63, -13.77, -24.07, -25.30, -25.12, -21.41, -18.08, 0.000, 0.000, 0.000, 04:02:03.883
149, -20.56, -26.49, -18.53, -22.15, -25.01, -14.86, -16.79, -22.11, -18.75, -23.63, -13.77, -24.07, -25.30, -25.12, -21.41, -18.08, 0.000, 0.000, 0.000, 04:02:03.887
150, -20.56, -26.49, -18.53, -22.15, -25.01, -14.86, -16.79, -22.11, -18.91, -23.25, -13.97, -24.03, -25.48, -24.86, -21.21, -18.15, 0.000, 0.000, 0.000, 04:02:03.892
151, -20.81, -26.53, -18.53, -22.04, -25.19, -14.80, -16.79, -22.17, -18.91, -23.25, -13.97, -24.03, -25.48, -24.86, -21.21, -18.15, 0.000, 0.000, 0.000, 04:02:03.896
152, -20.81, -26.53, -18.53, -22.04, -25.19, -14.80, -16.79, -22.17, -18.73, -23.36, -13.90, -24.01, -25.59, -24.83, -21.28, -17.93, 0.000, 0.000, 0.000, 04:02:03.899
153, -20.79, -26.46, -18.44, -22.15, -25.10, -14.86, -16.61, -22.13, -18.73, -23.36, -13.90, -24.01, -25.59, -24.83, -21.28, -17.93, 0.000, 0.000, 0.000, 04:02:03.906
154, -20.79, -26.46, -18.44, -22.15, -25.10, -14.86, -16.61, -22.13, -18.69, -23.56, -14.04, -23.87, -25.37, -24.94, -21.17, -18.06, 0.008, 0.942, 0.282, 04:02:03.907
155, -20.70, -26.64, -18.31, -21.79, -24.94, -14.91, -16.74, -22.02, -18.69, -23.56, -14.04, -23.87, -25.37, -24.94, -21.17, -18.06, 0.000, 0.000, 0.000, 04:02:03.912
156, -20.70, -26.64, -18.31, -21.79, -24.94, -14.91, -16.74, -22.02, -18.82, -23.42, -13.84, -24.16, -25.44, -24.86, -21.35, -18.13, 0.000, 0.000, 0.000, 04:02:03.916
157, -20.88, -26.67, -18.55, -21.86, -24.92, -14.93, -16.70, -22.11, -18.82, -23.42, -13.84, -24.16, -25.44, -24.86, -21.35, -18.13, 0.000, 0.000, 0.000, 04:02:03.919
158, -20.88, -26.67, -18.55, -21.86, -24.92, -14.93, -16.70, -22.11, -18.84, -23.45, -13.90, -24.01, -25.24, -24.92, -20.94, -18.02, 0.000, 0.000, 0.000, 04:02:03.924
159, -20.74, -26.53, -18.57, -22.11, -25.01, -14.98, -16.72, -22.15, -18.84, -23.45, -13.90, -24.01, -25.24, -24.92, -20.94, -18.02, 0.000, 0.000, 0.000, 04:02:03.928
160, -20.74, -26.53, -18.57, -22.11, -25.01, -14.98, -16.72, -22.15, -18.89, -23.27, -13.84, -23.96, -25.21, -24.92, -20.94, -18.08, 0.000, 0.000, 0.000, 04:02:03.931
161, -20.85, -26.51, -18.44, -22.24, -24.83, -15.02, -16.67, -22.24, -18.89, -23.27, -13.84, -23.96, -25.21, -24.92, -20.94, -18.08, 0.000, 0.000, 0.000, 04:02:03.936
162, -20.85, -26.51, -18.44, -22.24, -24.83, -15.02, -16.67, -22.24, -19.02, -23.45, -13.86, -23.96, -25.35, -24.81, -21.35, -18.24, 0.000, 0.000, 0.000, 04:02:03.940
163, -20.72, -26.67, -18.46, -22.06, -25.19, -14.86, -16.79, -22.08, -19.02, -23.45, -13.86, -23.96, -25.35, -24.81, -21.35, -18.24, 0.000, 0.000, 0.000, 04:02:03.943
164, -20.72, -26.67, -18.46, -22.06, -25.19, -14.86, -16.79, -22.08, -18.93, -23.65, -13.90, -23.89, -25.44, -24.79, -21.06, -18.17, 0.020, 0.956, 0.304, 04:02:03.948
165, -20.76, -26.69, -18.46, -22.24, -25.15, -14.80, -16.65, -22.04, -18.93, -23.65, -13.90, -23.89, -25.44, -24.79, -21.06, -18.17, 0.000, 0.000, 0.000, 04:02:03.951
166, -20.76, -26.69, -18.46, -22.24, -25.15, -14.80, -16.65, -22.04, -18.89, -23.36, -14.01, -24.03, -25.39, -24.61, -21.12, -18.15, 0.000, 0.000, 0.000, 04:02:03.955
167, -20.70, -26.67, -18.35, -21.82, -25.12, -14.95, -16.83, -22.15, -18.89, -23.36, -14.01, -24.03, -25.39, -24.61, -21.12, -18.15, 0.000, 0.000, 0.000, 04:02:03.958
168, -20.70, -26.67, -18.35, -21.82, -25.12, -14.95, -16.83, -22.15, -18.86, -23.36, -14.08, -24.01, -25.53, -24.79, -20.90, -18.17, 0.000, 0.000, 0.000, 04:02:03.963
169, -20.76, -26.64, -18.51, -22.13, -25.10, -15.02, -16.88, -22.26, -18.86, -23.36, -14.08, -24.01, -25.53, -24.79, -20.90, -18.17, 0.000, 0.000, 0.000, 04:02:03.968
170, -20.76, -26.64, -18.51, -22.13, -25.10, -15.02, -16.88, -22.26, -18.89, -23.38, -13.86, -23.94, -25.37, -25.08, -21.08, -17.97, 0.000, 0.000, 0.000, 04:02:03.971
171, -20.65, -26.67, -18.46, -22.26, -25.08, -15.02, -16.85, -21.93, -18.89, -23.38, -13.86, -23.94, -25.37, -25.08, -21.08, -17.97, 0.000, 0.000, 0.000, 04:02:03.976
172, -20.65, -26.67, -18.46, -22.26, -25.08, -15.02, -16.85, -21.93, -18.86, -23.45, -13.97, -24.03, -25.35, -25.10, -21.10, -18.08, 0.000, 0.000, 0.000, 04:02:03.980
173, -20.74, -26.44, -18.55, -22.11, -25.01, -14.89, -16.85, -22.04, -18.86, -23.45, -13.97, -24.03, -25.35, -25.10, -21.10, -18.08, 0.000, 0.000, 0.000, 04:02:03.984
174, -20.74, -26.44, -18.55, -22.11, -25.01, -14.89, -16.85, -22.04, -18.86, -23.54, -13.88, -23.98, -25.26, -24.92, -21.26, -18.10, 0.010, 0.958, 0.300, 04:02:03.989
175, -20.81, -26.49, -18.57, -22.08, -24.88, -15.07, -16.74, -22.17, -18.86, -23.54, -13.88, -23.98, -25.26, -24.92, -21.26, -18.10, 0.000, 0.000, 0.000, 04:02:03.991
176, -20.81, -26.49, -18.57, -22.08, -24.88, -15.07, -16.74, -22.17, -18.75, -23.51, -13.90, -24.12, -25.17, -24.88, -21.26, -18.10, 0.000, 0.000, 0.000, 04:02:03.996
177, -20.81, -26.71, -18.53, -22.15, -25.06, -15.11, -16.83, -22.06, -18.75, -23.51, -13.90, -24.12, -25.17, -24.88, -21.26, -18.10, 0.000, 0.000, 0.000, 04:02:04.002
178, -20.81, -26.71, -18.53, -22.15, -25.06, -15.11, -16.83, -22.06, -18.73, -23.51, -13.86, -24.05, -25.26, -25.03, -21.52, -18.08, 0.000, 0.000, 0.000, 04:02:04.005
179, -20.50, -26.78, -18.42, -22.17, -25.21, -14.66, -16.83, -21.95, -18.73, -23.51, -13.86, -24.05, -25.26, -25.03, -21.52, -18.08, 0.000, 0.000, 0.000, 04:02:04.009
180, -20.50, -26.78, -18.42, -22.17, -25.21, -14.66, -16.83, -21.95, -18.82, -23.58, -13.72, -24.05, -25.39, -24.61, -21.23, -18.10, 0.000, 0.000, 0.000, 04:02:04.011
181, -20.70, -26.89, -18.80, -21.99, -25.01, -15.04, -16.76, -21.86, -18.82, -23.58, -13.72, -24.05, -25.39, -24.61, -21.23, -18.10, 0.000, 0.000, 0.000, 04:02:04.015
182, -20.70, -26.89, -18.80, -21.99, -25.01, -15.04, -16.76, -21.86, -18.91, -23.58, -13.90, -23.98, -25.41, -24.68, -20.99, -18.04, 0.000, 0.000, 0.000, 04:02:04.019
183, -20.79, -26.62, -18.71, -22.20, -25.01, -15.00, -16.81, -21.79, -18.91, -23.58, -13.90, -23.98, -25.41, -24.68, -20.99, -18.04, 0.008, 0.946, 0.288, 04:02:04.024
184, -20.79, -26.62, -18.71, -22.20, -25.01, -15.00, -16.81, -21.79, -19.00, -23.58, -13.99, -24.03, -25.44, -24.83, -21.10, -18.04, 0.000, 0.000, 0.000, 04:02:04.028
185, -20.65, -26.73, -18.57, -22.15, -24.81, -14.84, -16.79, -22.06, -19.00, -23.58, -13.99, -24.03, -25.44, -24.83, -21.10, -18.04, 0.000, 0.000, 0.000, 04:02:04.031
186, -20.65, -26.73, -18.57, -22.15, -24.81, -14.84, -16.79, -22.06, -18.82, -23.42, -13.90, -24.05, -25.48, -24.63, -21.06, -18.10, 0.000, 0.000, 0.000, 04:02:04.036
187, -20.72, -26.53, -18.57, -22.11, -25.17, -15.00, -16.65, -21.95, -18.82, -23.42, -13.90, -24.05, -25.48, -24.63, -21.06, -18.10, 0.000, 0.000, 0.000, 04:02:04.038
188, -20.72, -26.53, -18.57, -22.11, -25.17, -15.00, -16.65, -21.95, -18.89, -23.45, -13.90, -24.14, -25.48, -24.83, -21.19, -17.77, 0.000, 0.000, 0.000, 04:02:04.043
189, -20.61, -26.60, -18.66, -22.15, -25.17, -15.15, -16.72, -22.20, -18.89, -23.45, -13.90, -24.14, -25.48, -24.83, -21.19, -17.77, 0.000, 0.000, 0.000, 04:02:04.048
190, -20.61, -26.60, -18.66, -22.15, -25.17, -15.15, -16.72, -22.20, -18.84, -23.47, -13.84, -23.96, -25.41, -25.01, -21.28, -18.13, 0.000, 0.000, 0.000, 04:02:04.051
191, -20.72, -26.60, -18.62, -21.77, -25.01, -14.84, -16.65, -22.24, -18.84, -23.47, -13.84, -23.96, -25.41, -25.01, -21.28, -18.13, 0.000, 0.000, 0.000, 04:02:04.056
192, -20.72, -26.60, -18.62, -21.77, -25.01, -14.84, -16.65, -22.24, -18.98, -23.27, -13.95, -23.92, -25.35, -24.94, -21.41, -18.08, 0.000, 0.000, 0.000, 04:02:04.059
193, -20.52, -26.62, -18.71, -21.97, -25.08, -14.73, -16.52, -22.13, -18.98, -23.27, -13.95, -23.92, -25.35, -24.94, -21.41, -18.08, 0.010, 0.938, 0.280, 04:02:04.063
194, -20.52, -26.62, -18.71, -21.97, -25.08, -14.73, -16.52, -22.13, -18.84, -23.47, -13.93, -24.07, -25.57, -24.83, -21.10, -17.99, 0.000, 0.000, 0.000, 04:02:04.067
195, -20.65, -26.55, -18.69, -22.26, -24.99, -14.89, -16.90, -21.88, -18.84, -23.47, -13.93, -24.07, -25.57, -24.83, -21.10, -17.99, 0.000, 0.000, 0.000, 04:02:04.070
196, -20.65, -26.55, -18.69, -22.26, -24.99, -14.89, -16.90, -21.88, -18.98, -23.69, -14.08, -24.01, -25.46, -25.01, -21.21, -18.17, 0.000, 0.000, 0.000, 04:02:04.076
197, -20.83, -26.64, -18.17, -22.13, -24.94, -14.91, -16.65, -22.26, -18.98, -23.69, -14.08, -24.01, -25.46, -25.01, -21.21, -18.17, 0.000, 0.000, 0.000, 04:02:04.080
198, -20.83, -26.64, -18.17, -22.13, -24.94, -14.91, -16.65, -22.26, -18.84, -23.60, -13.75, -23.98, -25.46, -24.90, -21.41, -18.17, 0.000, 0.000, 0.000, 04:02:04.084
199, -20.65, -26.40, -18.62, -22.08, -24.99, -14.84, -16.67, -22.06, -18.84, -23.60, -13.75, -23.98, -25.46, -24.90, -21.41, -18.17, 0.000, 0.000, 0.000, 04:02:04.089
200, -20.65, -26.40, -18.62, -22.08, -24.99, -14.84, -16.67, -22.06, -18.89, -23.40, -13.93, -24.14, -25.37, -24.83, -21.30, -17.97, 0.000, 0.000, 0.000, 04:02:04.091
201, -20.76, -26.44, -18.62, -22.13, -25.21, -14.80, -16.67, -22.13, -18.89, -23.40, -13.93, -24.14, -25.37, -24.83, -21.30, -17.97, 0.000, 0.000, 0.000, 04:02:04.095
202, -20.76, -26.44, -18.62, -22.13, -25.21, -14.80, -16.67, -22.13, -19.02, -23.31, -13.93, -23.85, -25.39, -24.90, -21.23, -18.19, 0.000, 0.000, 0.000, 04:02:04.098
203, -20.61, -26.64, -18.62, -22.11, -24.99, -14.98, -16.90, -21.97, -19.02, -23.31, -13.93, -23.85, -25.39, -24.90, -21.23, -18.19, 0.022, 0.638, 0.162, 04:02:04.104
204, -20.61, -26.64, -18.62, -22.11, -24.99, -14.98, -16.90, -21.97, -18.84, -23.49, -13.84, -23.87, -25.44, -24.86, -21.21, -18.19, 0.000, 0.000, 0.000, 04:02:04.108
205, -20.79, -26.58, -18.71, -22.17, -25.32, -14.84, -16.88, -22.13, -18.84, -23.49, -13.84, -23.87, -25.44, -24.86, -21.21, -18.19, 0.000, 0.000, 0.000, 04:02:04.111
206, -20.79, -26.58, -18.71, -22.17, -25.32, -14.84, -16.88, -22.13, -18.86, -23.20, -13.81, -23.87, -25.28, -24.88, -21.21, -18.10, 0.000, 0.000, 0.000, 04:02:04.115
207, -20.74, -26.71, -18.46, -22.11, -24.92, -14.84, -16.61, -22.13, -18.86, -23.20, -13.81, -23.87, -25.28, -24.88, -21.21, -18.10, 0.000, 0.000, 0.000, 04:02:04.118
208, -20.74, -26.71, -18.46, -22.11, -24.92, -14.84, -16.61, -22.13, -18.98, -23.36, -13.72, -23.92, -25.32, -24.72, -21.17, -18.04, 0.000, 0.000, 0.000, 04:02:04.122
209, -20.90, -26.73, -18.46, -22.31, -25.10, -15.02, -16.79, -22.06, -18.98, -23.36, -13.72, -23.92, -25.32, -24.72, -21.17, -18.04, 0.000, 0.000, 0.000, 04:02:04.126
210, -20.90, -26.73, -18.46, -22.31, -25.10, -15.02, -16.79, -22.06, -18.71, -23.34, -13.95, -24.01, -25.19, -24.97, -21.06, -17.93, 0.000, 0.000, 0.000, 04:02:04.131
211, -20.65, -26.38, -18.51, -22.17, -25.12, -14.93, -16.83, -22.33, -18.71, -23.34, -13.95, -24.01, -25.19, -24.97, -21.06, -17.93, 0.000, 0.000, 0.000, 04:02:04.136
212, -20.65, -26.38, -18.51, -22.17, -25.12, -14.93, -16.83, -22.33, -18.82, -23.54, -14.06, -23.96, -25.24, -24.81, -21.30, -17.97, 0.000, 0.000, 0.000, 04:02:04.138
213, -20.83, -26.55, -18.51, -22.22, -25.08, -15.04, -16.81, -21.88, -18.82, -23.54, -14.06, -23.96, -25.24, -24.81, -21.30, -17.97, 0.000, 0.690, 0.198, 04:02:04.143
214, -20.83, -26.55, -18.51, -22.22, -25.08, -15.04, -16.81, -21.88, -18.86, -23.54, -13.86, -23.85, -25.17, -24.88, -21.10, -18.06, 0.000, 0.000, 0.000, 04:02:04.146
215, -20.88, -26.53, -18.46, -21.95, -25.10, -14.77, -16.83, -22.24, -18.86, -23.54, -13.86, -23.85, -25.17, -24.88, -21.10, -18.06, 0.000, 0.000, 0.000, 04:02:04.151
216, -20.88, -26.53, -18.46, -21.95, -25.10, -14.77, -16.83, -22.24, -18.93, -23.45, -14.08, -24.01, -25.12, -24.90, -21.10, -17.84, 0.000, 0.000, 0.000, 04:02:04.155
217, -20.92, -26.49, -18.53, -21.95, -25.01, -14.80, -16.79, -22.28, -18.93, -23.45, -14.08, -24.01, -25.12, -24.90, -21.10, -17.84, 0.000, 0.000, 0.000, 04:02:04.159
218, -20.92, -26.49, -18.53, -21.95, -25.01, -14.80, -16.79, -22.28, -18.82, -23.42, -13.86, -24.05, -25.44, -24.79, -21.08, -18.15, 0.000, 0.000, 0.000, 04:02:04.164
219, -20.81, -26.46, -18.46, -22.13, -24.99, -14.86, -16.94, -22.15, -18.82, -23.42, -13.86, -24.05, -25.44, -24.79, -21.08, -18.15, 0.000, 0.000, 0.000, 04:02:04.166
220, -20.81, -26.46, -18.46, -22.13, -24.99, -14.86, -16.94, -22.15, -18.69, -23.54, -13.72, -24.10, -25.35, -24.68, -21.06, -17.99, 0.000, 0.000, 0.000, 04:02:04.172
221, -20.74, -26.51, -18.57, -22.28, -24.92, -14.82, -16.79, -22.40, -18.69, -23.54, -13.72, -24.10, -25.35, -24.68, -21.06, -17.99, 0.000, 0.000, 0.000, 04:02:04.174
222, -20.74, -26.51, -18.57, -22.28, -24.92, -14.82, -16.79, -22.40, -18.73, -23.47, -14.28, -23.94, -25.32, -24.65, -21.10, -17.88, 0.000, 0.000, 0.000, 04:02:04.179
223, -20.65, -26.60, -18.42, -22.22, -25.15, -14.95, -16.74, -22.15, -18.73, -23.47, -14.28, -23.94, -25.32, -24.65, -21.10, -17.88, -0.010, 0.764, 0.212, 04:02:04.182
224, -20.65, -26.60, -18.42, -22.22, -25.15, -14.95, -16.74, -22.15, -19.02, -23.40, -14.08, -23.98, -25.46, -24.90, -21.08, -18.04, 0.000, 0.000, 0.000, 04:02:04.187
225, -20.50, -26.60, -18.33, -22.24, -25.10, -14.80, -16.79, -21.93, -19.02, -23.40, -14.08, -23.98, -25.46, -24.90, -21.08, -18.04, 0.000, 0.000, 0.000, 04:02:04.192
226, -20.50, -26.60, -18.33, -22.24, -25.10, -14.80, -16.79, -21.93, -18.86, -23.40, -13.97, -23.92, -25.19, -24.97, -21.21, -17.84, 0.000, 0.000, 0.000, 04:02:04.195
227, -20.72, -26.49, -18.44, -21.95, -25.10, -15.00, -16.83, -22.02, -18.86, -23.40, -13.97, -23.92, -25.19, -24.97, -21.21, -17.84, 0.000, 0.000, 0.000, 04:02:04.199
228, -20.72, -26.49, -18.44, -21.95, -25.10, -15.00, -16.83, -22.02, -18.95, -23.31, -13.90, -24.07, -25.35, -24.92, -21.21, -18.02, 0.000, 0.000, 0.000, 04:02:04.202
229, -20.79, -26.64, -18.60, -22.08, -24.99, -14.75, -16.74, -22.11, -18.95, -23.31, -13.90, -24.07, -25.35, -24.92, -21.21, -18.02, 0.000, 0.000, 0.000, 04:02:04.207
230, -20.79, -26.64, -18.60, -22.08, -24.99, -14.75, -16.74, -22.11, -19.00, -23.45, -13.90, -24.10, -25.44, -24.92, -21.26, -17.95, 0.000, 0.000, 0.000, 04:02:04.210
231, -20.79, -26.46, -18.62, -22.20, -24.90, -14.93, -16.79, -22.11, -19.00, -23.45, -13.90, -24.10, -25.44, -24.92, -21.26, -17.95, 0.000, 0.000, 0.000, 04:02:04.215
232, -20.79, -26.46, -18.62, -22.20, -24.90, -14.93, -16.79, -22.11, -18.84, -23.45, -14.15, -23.98, -25.64, -24.63, -21.14, -17.86, 0.000, 0.000, 0.000, 04:02:04.219
233, -20.63, -26.49, -18.48, -21.90, -24.86, -14.77, -16.76, -22.22, -18.84, -23.45, -14.15, -23.98, -25.64, -24.63, -21.14, -17.86, 0.058, 0.894, 0.280, 04:02:04.222
234, -20.63, -26.49, -18.48, -21.90, -24.86, -14.77, -16.76, -22.22, -18.95, -23.49, -13.86, -23.80, -25.55, -24.72, -21.30, -17.97, 0.000, 0.000, 0.000, 04:02:04.226
235, -20.61, -26.55, -18.37, -22.17, -25.21, -14.82, -16.83, -21.97, -18.95, -23.49, -13.86, -23.80, -25.55, -24.72, -21.30, -17.97, 0.000, 0.000, 0.000, 04:02:04.230
236, -20.61, -26.55, -18.37, -22.17, -25.21, -14.82, -16.83, -21.97, -18.86, -23.40, -13.81, -24.03, -25.35, -24.79, -21.19, -18.06, 0.000, 0.000, 0.000, 04:02:04.235
237, -20.92, -26.55, -18.48, -22.06, -25.17, -14.93, -16.88, -22.08, -18.86, -23.40, -13.81, -24.03, -25.35, -24.79, -21.19, -18.06, 0.000, 0.000, 0.000, 04:02:04.239
238, -20.92, -26.55, -18.48, -22.06, -25.17, -14.93, -16.88, -22.08, -19.00, -23.69, -13.86, -24.14, -25.19, -24.83, -21.14, -17.99, 0.000, 0.000, 0.000, 04:02:04.243
239, -20.54, -26.46, -18.33, -21.99, -25.24, -14.98, -16.96, -22.11, -19.00, -23.69, -13.86, -24.14, -25.19, -24.83, -21.14, -17.99, 0.000, 0.000, 0.000, 04:02:04.247
240, -20.54, -26.46, -18.33, -21.99, -25.24, -14.98, -16.96, -22.11, -18.89, -23.60, -13.93, -24.01, -25.44, -24.59, -21.14, -17.99, 0.000, 0.000, 0.000, 04:02:04.250
241, -20.72, -26.51, -18.40, -22.28, -24.88, -15.02, -16.63, -22.02, -18.89, -23.60, -13.93, -24.01, -25.44, -24.59, -21.14, -17.99, 0.000, 0.000, 0.000, 04:02:04.254
242, -20.72, -26.51, -18.40, -22.28, -24.88, -15.02, -16.63, -22.02, -18.93, -23.49, -13.97, -24.05, -25.24, -24.79, -21.10, -18.10, 0.000, 0.000, 0.000, 04:02:04.258
243, -20.85, -26.44, -18.42, -22.20, -24.99, -14.82, -16.67, -21.95, -18.93, -23.49, -13.97, -24.05, -25.24, -24.79, -21.10, -18.10, 0.064, 0.908, 0.270, 04:02:04.263
244, -20.85, -26.44, -18.42, -22.20, -24.99, -14.82, -16.67, -21.95, -18.78, -23.29, -13.79, -24.10, -25.24, -24.81, -21.23, -18.24, 0.000, 0.000, 0.000, 04:02:04.267
245, -20.92, -26.64, -18.64, -21.99, -24.92, -15.27, -16.83, -22.13, -18.78, -23.29, -13.79, -24.10, -25.24, -24.81, -21.23, -18.24, 0.000, 0.000, 0.000, 04:02:04.271
246, -20.92, -26.64, -18.64, -21.99, -24.92, -15.27, -16.83, -22.13, -18.78, -23.45, -13.90, -24.07, -25.50, -24.92, -21.32, -17.93, 0.000, 0.000, 0.000, 04:02:04.274
247, -20.79, -26.67, -18.46, -22.08, -24.90, -14.91, -16.74, -22.02, -18.78, -23.45, -13.90, -24.07, -25.50, -24.92, -21.32, -17.93, 0.000, 0.000, 0.000, 04:02:04.277
248, -20.79, -26.67, -18.46, -22.08, -24.90, -14.91, -16.74, -22.02, -18.80, -23.42, -13.84, -24.03, -25.24, -24.81, -21.17, -17.99, 0.000, 0.000, 0.000, 04:02:04.282
249, -20.65, -26.55, -18.48, -22.08, -24.97, -15.04, -16.74, -22.20, -18.80, -23.42, -13.84, -24.03, -25.24, -24.81, -21.17, -17.99, 0.000, 0.000, 0.000, 04:02:04.287
250, -20.65, -26.55, -18.48, -22.08, -24.97, -15.04, -16.74, -22.20, -18.75, -23.29, -13.95, -23.98, -25.39, -24.54, -21.30, -17.99, 0.000, 0.000, 0.000, 04:02:04.291
251, -20.70, -26.62, -18.55, -21.95, -25.10, -14.93, -16.83, -22.24, -18.75, -23.29, -13.95, -23.98, -25.39, -24.54, -21.30, -17.99, 0.000, 0.000, 0.000, 04:02:04.295
252, -20.70, -26.62, -18.55, -21.95, -25.10, -14.93, -16.83, -22.24, -18.93, -23.40, -13.75, -23.89, -25.30, -24.70, -21.37, -18.02, 0.048, 0.938, 0.260, 04:02:04.299
253, -20.68, -26.71, -18.64, -22.04, -24.83, -14.89, -16.92, -21.95, -18.93, -23.40, -13.75, -23.89, -25.30, -24.70, -21.37, -18.02, 0.000, 0.000, 0.000, 04:02:04.303
254, -20.68, -26.71, -18.64, -22.04, -24.83, -14.89, -16.92, -21.95, -18.69, -23.25, -13.84, -23.85, -25.08, -24.63, -21.28, -18.02, 0.000, 0.000, 0.000, 04:02:04.306
255, -20.68, -26.67, -18.64, -22.04, -25.21, -14.98, -16.67, -22.02, -18.69, -23.25, -13.84, -23.85, -25.08, -24.63, -21.28, -18.02, 0.000, 0.000, 0.000, 04:02:04.310
0, -20.68, -26.67, -18.64, -22.04, -25.21, -14.98, -16.67, -22.02, -18.91, -23.42, -13.93, -23.83, -25.32, -24.86, -21.32, -17.95, 0.000, 0.000, 0.000, 04:02:04.315
1, -20.88, -26.69, -18.46, -22.15, -24.92, -15.02, -16.85, -22.04, -18.91, -23.42, -13.93, -23.83, -25.32, -24.86, -21.32, -17.95, 0.000, 0.000, 0.000, 04:02:04.319
2, -20.88, -26.69, -18.46, -22.15, -24.92, -15.02, -16.85, -22.04, -18.64, -23.45, -14.08, -24.01, -25.26, -24.79, -21.41, -17.93, 0.000, 0.000, 0.000, 04:02:04.324
3, -20.90, -26.69, -18.60, -22.04, -25.10, -14.91, -16.79, -22.04, -18.64, -23.45, -14.08, -24.01, -25.26, -24.79, -21.41, -17.93, 0.000, 0.000, 0.000, 04:02:04.328
4, -20.90, -26.69, -18.60, -22.04, -25.10, -14.91, -16.79, -22.04, -19.04, -23.34, -13.95, -24.23, -25.37, -24.90, -21.21, -18.02, 0.000, 0.000, 0.000, 04:02:04.331
5, -20.92, -26.69, -18.40, -22.06, -25.21, -14.86, -16.74, -22.08, -19.04, -23.34, -13.95, -24.23, -25.37, -24.90, -21.21, -18.02, 0.000, 0.000, 0.000, 04:02:04.334
6, -20.92, -26.69, -18.40, -22.06, -25.21, -14.86, -16.74, -22.08, -18.93, -23.36, -13.88, -24.10, -25.19, -24.88, -21.08, -17.81, 0.040, 0.914, 0.276, 04:02:04.338
7, -20.68, -26.58, -18.26, -22.13, -25.06, -14.84, -16.99, -21.90, -18.93, -23.36, -13.88, -24.10, -25.19, -24.88, -21.08, -17.81, 0.000, 0.000, 0.000, 04:02:04.343
8, -20.68, -26.58, -18.26, -22.13, -25.06, -14.84, -16.99, -21.90, -18.69, -23.27, -14.08, -23.92, -25.10, -24.70, -21.06, -17.90, 0.000, 0.000, 0.000, 04:02:04.347
9, -20.61, -26.76, -18.48, -22.08, -25.01, -15.09, -16.96, -22.13, -18.69, -23.27, -14.08, -23.92, -25.10, -24.70, -21.06, -17.90, 0.000, 0.000, 0.000, 04:02:04.351
10, -20.61, -26.76, -18.48, -22.08, -25.01, -15.09, -16.96, -22.13, -19.00, -23.34, -13.90, -23.98, -25.39, -24.50, -21.17, -18.13, 0.000, 0.000, 0.000, 04:02:04.354
11, -20.79, -26.64, -18.33, -22.13, -24.88, -14.84, -16.83, -22.15, -19.00, -23.34, -13.90, -23.98, -25.39, -24.50, -21.17, -18.13, 0.000, 0.000, 0.000, 04:02:04.358
12, -20.79, -26.64, -18.33, -22.13, -24.88, -14.84, -16.83, -22.15, -18.71, -23.40, -13.77, -23.94, -25.50, -24.70, -21.06, -18.13, 0.000, 0.000, 0.000, 04:02:04.362
13, -20.72, -26.62, -18.48, -21.93, -24.97, -14.77, -16.70, -21.99, -18.71, -23.40, -13.77, -23.94, -25.50, -24.70, -21.06, -18.13, 0.000, 0.000, 0.000, 04:02:04.366
14, -20.72, -26.62, -18.48, -21.93, -24.97, -14.77, -16.70, -21.99, -18.93, -23.60, -13.95, -24.05, -25.64, -24.63, -21.06, -18.22, 0.000, 0.000, 0.000, 04:02:04.370
15, -20.74, -26.58, -18.64, -21.97, -25.10, -14.84, -16.67, -22.17, -18.93, -23.60, -13.95, -24.05, -25.64, -24.63, -21.06, -18.22, 0.000, 0.000, 0.000, 04:02:04.375
16, -20.74, -26.58, -18.64, -21.97, -25.10, -14.84, -16.67, -22.17, -18.89, -23.45, -14.15, -24.07, -25.46, -24.88, -21.21, -18.13, 0.044, 0.946, 0.308, 04:02:04.379
17, -20.70, -26.53, -18.80, -22.17, -24.86, -15.00, -16.79, -21.99, -18.89, -23.45, -14.15, -24.07, -25.46, -24.88, -21.21, -18.13, 0.000, 0.000, 0.000, 04:02:04.382
18, -20.70, -26.53, -18.80, -22.17, -24.86, -15.00, -16.79, -21.99, -19.04, -23.40, -13.81, -24.14, -25.19, -24.92, -21.12, -18.10, 0.000, 0.000, 0.000, 04:02:04.386
19, -20.81, -26.53, -18.44, -21.99, -25.01, -15.00, -16.72, -22.24, -19.04, -23.40, -13.81, -24.14, -25.19, -24.92, -21.12, -18.10, 0.000, 0.000, 0.000, 04:02:04.392
20, -20.81, -26.53, -18.44, -21.99, -25.01, -15.00, -16.72, -22.24, -18.82, -23.60, -13.57, -24.16, -25.28, -24.90, -21.10, -17.84, 0.000, 0.000, 0.000, 04:02:04.395
21, -20.85, -26.46, -18.66, -22.04, -24.92, -15.13, -16.72, -22.04, -18.82, -23.60, -13.57, -24.16, -25.28, -24.90, -21.10, -17.84, 0.000, 0.000, 0.000, 04:02:04.398
22, -20.85, -26.46, -18.66, -22.04, -24.92, -15.13, -16.72, -22.04, -19.09, -23.58, -13.86, -24.05, -25.32, -24.86, -21.14, -18.04, 0.000, 0.000, 0.000, 04:02:04.403
23, -20.72, -26.53, -18.48, -22.08, -25.03, -14.89, -16.65, -22.17, -19.09, -23.58, -13.86, -24.05, -25.32, -24.86, -21.14, -18.04, 0.000, 0.000, 0.000, 04:02:04.408
24, -20.72, -26.53, -18.48, -22.08, -25.03, -14.89, -16.65, -22.17, -19.00, -23.72, -13.95, -24.21, -25.28, -24.74, -21.37, -18.06, 0.000, 0.000, 0.000, 04:02:04.410
25, -20.61, -26.62, -18.53, -22.02, -24.77, -14.95, -16.70, -22.24, -19.00, -23.72, -13.95, -24.21, -25.28, -24.74, -21.37, -18.06, 0.000, 0.000, 0.000, 04:02:04.415
26, -20.61, -26.62, -18.53, -22.02, -24.77, -14.95, -16.70, -22.24, -19.00, -23.58, -13.81, -23.94, -25.41, -24.77, -21.35, -17.90, -0.014, 0.884, 0.306, 04:02:04.418
27, -20.68, -26.46, -18.80, -22.13, -24.94, -14.86, -16.96, -22.04, -19.00, -23.58, -13.81, -23.94, -25.41, -24.77, -21.35, -17.90, 0.000, 0.000, 0.000, 04:02:04.422
28, -20.68, -26.46, -18.80, -22.13, -24.94, -14.86, -16.96, -22.04, -18.82, -23.51, -13.75, -23.69, -25.28, -24.92, -21.06, -18.06, 0.000, 0.000, 0.000, 04:02:04.426
29, -20.81, -26.58, -18.66, -21.90, -24.81, -15.11, -16.81, -22.35, -18.82, -23.51, -13.75, -23.69, -25.28, -24.92, -21.06, -18.06, 0.000, 0.000, 0.000, 04:02:04.432
30, -20.81, -26.58, -18.66, -21.90, -24.81, -15.11, -16.81, -22.35, -18.71, -23.51, -13.79, -23.85, -25.39, -24.94, -21.19, -18.19, 0.000, 0.000, 0.000, 04:02:04.436
31, -20.81, -26.55, -18.53, -21.86, -24.81, -15.20, -16.74, -22.42, -18.71, -23.51, -13.79, -23.85, -25.39, -24.94, -21.19, -18.19, 0.000, 0.000, 0.000, 04:02:04.439
32, -20.81, -26.55, -18.53, -21.86, -24.81, -15.20, -16.74, -22.42, -18.78, -23.40, -13.88, -24.07, -25.24, -24.79, -21.19, -17.93, 0.000, 0.000, 0.000, 04:02:04.443
33, -20.68, -26.62, -18.60, -22.15, -25.10, -14.98, -16.92, -22.06, -18.78, -23.40, -13.88, -24.07, -25.24, -24.79, -21.19, -17.93, 0.000, 0.000, 0.000, 04:02:04.446
34, -20.68, -26.62, -18.60, -22.15, -25.10, -14.98, -16.92, -22.06, -18.80, -23.31, -13.88, -24.07, -25.37, -24.94, -21.10, -18.15, 0.000, 0.000, 0.000, 04:02:04.450
35, -20.70, -26.71, -18.42, -21.97, -24.86, -14.91, -16.79, -22.17, -18.80, -23.31, -13.88, -24.07, -25.37, -24.94, -21.10, -18.15, 0.000, 0.000, 0.000, 04:02:04.454
36, -20.70, -26.71, -18.42, -21.97, -24.86, -14.91, -16.79, -22.17, -18.91, -23.67, -13.95, -24.07, -25.28, -24.97, -21.19, -18.02, -0.030, 0.894, 0.234, 04:02:04.459
37, -20.72, -26.58, -18.60, -21.97, -25.01, -14.75, -16.76, -22.26, -18.91, -23.67, -13.95, -24.07, -25.28, -24.97, -21.19, -18.02, 0.000, 0.000, 0.000, 04:02:04.463
38, -20.72, -26.58, -18.60, -21.97, -25.01, -14.75, -16.76, -22.26, -18.66, -23.42, -13.75, -24.07, -25.35, -24.79, -20.97, -17.93, 0.000, 0.000, 0.000, 04:02:04.466
39, -20.99, -26.46, -18.35, -22.11, -25.08, -14.73, -16.99, -22.17, -18.66, -23.42, -13.75, -24.07, -25.35, -24.79, -20.97, -17.93, 0.000, 0.000, 0.000, 04:02:04.470
40, -20.99, -26.46, -18.35, -22.11, -25.08, -14.73, -16.99, -22.17, -18.93, -23.51, -13.86, -24.03, -25.48, -24.72, -21.19, -17.93, 0.000, 0.000, 0.000, 04:02:04.474
41, -20.94, -26.49, -18.51, -22.06, -25.01, -14.82, -16.90, -22.04, -18.93, -23.51, -13.86, -24.03, -25.48, -24.72, -21.19, -17.93, 0.000, 0.000, 0.000, 04:02:04.480
42, -20.94, -26.49, -18.51, -22.06, -25.01, -14.82, -16.90, -22.04, -18.71, -23.42, -13.84, -23.98, -25.30, -24.81, -21.06, -17.97, 0.000, 0.000, 0.000, 04:02:04.483
43, -20.68, -26.58, -18.57, -22.26, -24.97, -14.95, -16.70, -22.35, -18.71, -23.42, -13.84, -23.98, -25.30, -24.81, -21.06, -17.97, 0.000, 0.000, 0.000, 04:02:04.487
44, -20.68, -26.58, -18.57, -22.26, -24.97, -14.95, -16.70, -22.35, -18.86, -23.42, -13.79, -23.83, -25.39, -24.77, -21.26, -17.99, 0.000, 0.000, 0.000, 04:02:04.491
45, -20.83, -26.64, -18.60, -22.22, -24.92, -14.98, -16.99, -22.06, -18.86, -23.42, -13.79, -23.83, -25.39, -24.77, -21.26, -17.99, 0.000, 0.000, 0.000, 04:02:04.494
46, -20.83, -26.64, -18.60, -22.22, -24.92, -14.98, -16.99, -22.06, -18.69, -23.40, -14.08, -23.89, -25.32, -24.77, -21.12, -18.08, 0.052, 0.926, 0.266, 04:02:04.498
47, -20.72, -26.53, -18.31, -21.97, -25.03, -14.86, -16.72, -22.33, -18.69, -23.40, -14.08, -23.89, -25.32, -24.77, -21.12, -18.08, 0.000, 0.000, 0.000, 04:02:04.503
48, -20.72, -26.53, -18.31, -21.97, -25.03, -14.86, -16.72, -22.33, -18.78, -23.51, -13.99, -24.07, -25.32, -24.72, -21.03, -18.15, 0.000, 0.000, 0.000, 04:02:04.506
49, -20.85, -26.55, -18.40, -22.11, -24.97, -14.95, -16.76, -21.97, -18.78, -23.51, -13.99, -24.07, -25.32, -24.72, -21.03, -18.15, 0.000, 0.000, 0.000, 04:02:04.510
50, -20.85, -26.55, -18.40, -22.11, -24.97, -14.95, -16.76, -21.97, -19.11, -23.38, -13.97, -23.98, -25.28, -24.74, -21.23, -17.99, 0.000, 0.000, 0.000, 04:02:04.517
51, -20.68, -26.60, -18.55, -22.15, -25.06, -14.89, -16.70, -22.17, -19.11, -23.38, -13.97, -23.98, -25.28, -24.74, -21.23, -17.99, 0.000, 0.000, 0.000, 04:02:04.519
52, -20.68, -26.60, -18.55, -22.15, -25.06, -14.89, -16.70, -22.17, -18.89, -23.29, -13.77, -24.10, -25.46, -24.77, -21.19, -18.26, 0.000, 0.000, 0.000, 04:02:04.523
53, -20.74, -26.58, -18.69, -22.06, -25.01, -14.82, -16.94, -22.11, -18.89, -23.29, -13.77, -24.10, -25.46, -24.77, -21.19, -18.26, 0.000, 0.000, 0.000, 04:02:04.526
54, -20.74, -26.58, -18.69, -22.06, -25.01, -14.82, -16.94, -22.11, -18.71, -23.49, -13.97, -24.07, -25.64, -24.86, -21.26, -18.10, 0.000, 0.000, 0.000, 04:02:04.531
55, -20.74, -26.67, -18.57, -21.82, -24.94, -14.89, -16.79, -22.04, -18.71, -23.49, -13.97, -24.07, -25.64, -24.86, -21.26, -18.10, 0.014, 0.920, 0.310, 04:02:04.534
56, -20.74, -26.67, -18.57, -21.82, -24.94, -14.89, -16.79, -22.04, -19.00, -23.40, -13.97, -23.92, -25.62, -24.77, -21.23, -18.19, 0.000, 0.000, 0.000, 04:02:04.538
57, -20.72, -26.62, -18.28, -22.08, -25.06, -14.80, -16.96, -22.04, -19.00, -23.40, -13.97, -23.92, -25.62, -24.77, -21.23, -18.19, 0.000, 0.000, 0.000, 04:02:04.542
58, -20.72, -26.62, -18.28, -22.08, -25.06, -14.80, -16.96, -22.04, -18.95, -23.51, -13.81, -23.98, -25.50, -24.74, -21.14, -17.81, 0.000, 0.000, 0.000, 04:02:04.547
59, -20.76, -26.51, -18.44, -22.04, -24.99, -15.04, -16.70, -22.04, -18.95, -23.51, -13.81, -23.98, -25.50, -24.74, -21.14, -17.81, 0.000, 0.000, 0.000, 04:02:04.550
60, -20.76, -26.51, -18.44, -22.04, -24.99, -15.04, -16.70, -22.04, -18.80, -23.36, -13.86, -23.78, -25.39, -24.99, -21.23, -17.97, 0.000, 0.000, 0.000, 04:02:04.554
61, -20.81, -26.55, -18.55, -22.22, -24.94, -14.95, -16.74, -21.90, -18.80, -23.36, -13.86, -23.78, -25.39, -24.99, -21.23, -17.97, 0.000, 0.000, 0.000, 04:02:04.559
62, -20.81, -26.55, -18.55, -22.22, -24.94, -14.95, -16.74, -21.90, -18.98, -23.60, -13.90, -24.10, -25.28, -24.94, -21.26, -18.08, 0.000, 0.000, 0.000, 04:02:04.562
63, -21.01, -26.64, -18.78, -22.15, -25.03, -15.04, -16.72, -21.93, -18.98, -23.60, -13.90, -24.10, -25.28, -24.94, -21.26, -18.08, 0.000, 0.000, 0.000, 04:02:04.566
64, -21.01, -26.64, -18.78, -22.15, -25.03, -15.04, -16.72, -21.93, -18.98, -23.76, -13.79, -23.87, -25.35, -24.97, -21.30, -18.17, 0.000, 0.000, 0.000, 04:02:04.570
65, -20.81, -26.49, -18.42, -21.93, -24.94, -14.89, -16.96, -22.02, -18.98, -23.76, -13.79, -23.87, -25.35, -24.97, -21.30, -18.17, -0.012, 0.930, 0.306, 04:02:04.573
66, -20.81, -26.49, -18.42, -21.93, -24.94, -14.89, -16.96, -22.02, -19.02, -23.67, -13.79, -24.14, -25.37, -24.74, -21.01, -18.19, 0.000, 0.000, 0.000, 04:02:04.578
67, -20.63, -26.51, -18.78, -22.22, -25.01, -14.82, -16.79, -22.04, -19.02, -23.67, -13.79, -24.14, -25.37, -24.74, -21.01, -18.19, 0.000, 0.000, 0.000, 04:02:04.584
68, -20.63, -26.51, -18.78, -22.22, -25.01, -14.82, -16.79, -22.04, -18.73, -23.51, -13.95, -24.14, -25.39, -24.77, -21.08, -18.08, 0.000, 0.000, 0.000, 04:02:04.586
69, -20.79, -26.67, -18.44, -22.11, -25.03, -14.84, -16.83, -22.11, -18.73, -23.51, -13.95, -24.14, -25.39, -24.77, -21.08, -18.08, 0.000, 0.000, 0.000, 04:02:04.590
70, -20.79, -26.67, -18.44, -22.11, -25.03, -14.84, -16.83, -22.11, -18.89, -23.72, -13.90, -23.96, -25.41, -24.81, -21.32, -18.06, 0.000, 0.000, 0.000, 04:02:04.595
71, -20.65, -26.64, -18.46, -22.22, -25.19, -15.00, -16.76, -21.99, -18.89, -23.72, -13.90, -23.96, -25.41, -24.81, -21.32, -18.06, 0.000, 0.000, 0.000, 04:02:04.598
72, -20.65, -26.64, -18.46, -22.22, -25.19, -15.00, -16.76, -21.99, -18.82, -23.18, -14.04, -24.25, -25.46, -24.81, -21.26, -17.99, 0.000, 0.000, 0.000, 04:02:04.601
73, -20.54, -26.84, -18.26, -22.08, -25.01, -15.09, -17.03, -22.22, -18.82, -23.18, -14.04, -24.25, -25.46, -24.81, -21.26, -17.99, 0.000, 0.000, 0.000, 04:02:04.606
74, -20.54, -26.84, -18.26, -22.08, -25.01, -15.09, -17.03, -22.22, -18.91, -23.27, -13.95, -24.05, -25.26, -24.68, -21.08, -17.81, 0.000, 0.000, 0.000, 04:02:04.609
75, -20.72, -26.60, -18.33, -22.20, -24.90, -14.82, -16.79, -21.97, -18.91, -23.27, -13.95, -24.05, -25.26, -24.68, -21.08, -17.81, 0.024, 0.918, 0.300, 04:02:04.615
76, -20.72, -26.60, -18.33, -22.20, -24.90, -14.82, -16.79, -21.97, -18.95, -23.40, -13.88, -24.03, -25.30, -24.88, -21.12, -18.37, 0.000, 0.000, 0.000, 04:02:04.618
77, -20.85, -26.76, -18.53, -22.04, -25.03, -14.93, -16.83, -22.11, -18.95, -23.40, -13.88, -24.03, -25.30, -24.88, -21.12, -18.37, 0.000, 0.000, 0.000, 04:02:04.623
78, -20.85, -26.76, -18.53, -22.04, -25.03, -14.93, -16.83, -22.11, -19.04, -23.31, -13.86, -23.96, -25.32, -24.79, -21.03, -18.26, 0.000, 0.000, 0.000, 04:02:04.626
79, -20.81, -26.64, -18.40, -22.24, -25.10, -14.93, -16.76, -22.13, -19.04, -23.31, -13.86, -23.96, -25.32, -24.79, -21.03, -18.26, 0.000, 0.000, 0.000, 04:02:04.630
80, -20.81, -26.64, -18.40, -22.24, -25.10, -14.93, -16.76, -22.13, -18.84, -23.51, -13.77, -23.98, -25.48, -24.81, -21.06, -18.19, 0.000, 0.000, 0.000, 04:02:04.634
81, -20.85, -26.71, -18.62, -22.17, -24.99, -14.86, -16.74, -22.22, -18.84, -23.51, -13.77, -23.98, -25.48, -24.81, -21.06, -18.19, 0.000, 0.000, 0.000, 04:02:04.637
82, -20.85, -26.71, -18.62, -22.17, -24.99, -14.86, -16.74, -22.22, -18.98, -23.49, -13.95, -24.18, -25.39, -24.70, -21.17, -17.88, 0.000, 0.000, 0.000, 04:02:04.642
83, -20.74, -26.67, -18.57, -22.11, -24.88, -15.07, -16.90, -22.15, -18.98, -23.49, -13.95, -24.18, -25.39, -24.70, -21.17, -17.88, 0.000, 0.000, 0.000, 04:02:04.647
84, -20.74, -26.67, -18.57, -22.11, -24.88, -15.07, -16.90, -22.15, -18.89, -23.36, -13.84, -23.96, -25.30, -24.97, -21.21, -18.13, 0.000, 0.000, 0.000, 04:02:04.650
85, -20.65, -26.62, -18.55, -21.99, -24.97, -14.95, -16.83, -22.11, -18.89, -23.36, -13.84, -23.96, -25.30, -24.97, -21.21, -18.13, 0.012, 0.926, 0.310, 04:02:04.653
86, -20.65, -26.62, -18.55, -21.99, -24.97, -14.95, -16.83, -22.11, -18.93, -23.49, -13.90, -24.10, -25.50, -24.72, -21.17, -18.08, 0.000, 0.000, 0.000, 04:02:04.658
87, -20.61, -26.78, -18.55, -21.88, -24.90, -14.82, -16.58, -22.35, -18.93, -23.49, -13.90, -24.10, -25.50, -24.72, -21.17, -18.08, 0.000, 0.000, 0.000, 04:02:04.661
88, -20.61, -26.78, -18.55, -21.88, -24.90, -14.82, -16.58, -22.35, -18.82, -23.49, -13.97, -23.87, -25.41, -24.81, -21.17, -18.08, 0.000, 0.000, 0.000, 04:02:04.666
89, -20.56, -26.42, -18.57, -21.88, -25.12, -14.89, -16.81, -22.22, -18.82, -23.49, -13.97, -23.87, -25.41, -24.81, -21.17, -18.08, 0.000, 0.000, 0.000, 04:02:04.670
90, -20.56, -26.42, -18.57, -21.88, -25.12, -14.89, -16.81, -22.22, -19.13, -23.56, -13.97, -24.01, -25.53, -24.74, -21.08, -17.90, 0.000, 0.000, 0.000, 04:02:04.674
91, -20.70, -26.42, -18.66, -22.06, -24.90, -14.93, -16.83, -22.22, -19.13, -23.56, -13.97, -24.01, -25.53, -24.74, -21.08, -17.90, 0.000, 0.000, 0.000, 04:02:04.677
92, -20.70, -26.42, -18.66, -22.06, -24.90, -14.93, -16.83, -22.22, -18.91, -23.56, -13.81, -24.01, -25.66, -24.70, -20.92, -18.10, 0.000, 0.000, 0.000, 04:02:04.681
93, -20.92, -26.53, -18.71, -21.99, -24.92, -15.02, -16.83, -22.08, -18.91, -23.56, -13.81, -24.01, -25.66, -24.70, -20.92, -18.10, 0.000, 0.000, 0.000, 04:02:04.686
94, -20.92, -26.53, -18.71, -21.99, -24.92, -15.02, -16.83, -22.08, -19.07, -23.60, -13.93, -23.98, -25.32, -24.94, -21.26, -18.15, 0.000, 0.000, 0.000, 04:02:04.689
95, -20.83, -26.55, -18.51, -22.13, -24.99, -15.04, -16.88, -22.24, -19.07, -23.60, -13.93, -23.98, -25.32, -24.94, -21.26, -18.15, 0.018, 0.936, 0.316, 04:02:04.694
96, -20.83, -26.55, -18.51, -22.13, -24.99, -15.04, -16.88, -22.24, -18.84, -23.40, -14.10, -24.21, -25.32, -24.79, -21.17, -18.08, 0.000, 0.000, 0.000, 04:02:04.699
97, -20.79, -26.53, -18.60, -22.17, -25.10, -14.98, -16.56, -22.04, -18.84, -23.40, -14.10, -24.21, -25.32, -24.79, -21.17, -18.08, 0.000, 0.000, 0.000, 04:02:04.702
98, -20.79, -26.53, -18.60, -22.17, -25.10, -14.98, -16.56, -22.04, -18.93, -23.34, -14.01, -24.03, -25.44, -24.83, -21.46, -18.22, 0.000, 0.000, 0.000, 04:02:04.706
99, -20.76, -26.53, -18.62, -21.88, -24.99, -14.95, -16.90, -22.20, -18.93, -23.34, -14.01, -24.03, -25.44, -24.83, -21.46, -18.22, 0.000, 0.000, 0.000, 04:02:04.709
100, -20.76, -26.53, -18.62, -21.88, -24.99, -14.95, -16.90, -22.20, -19.02, -23.47, -13.90, -23.89, -25.53, -24.83, -21.30, -18.10, 0.000, 0.000, 0.000, 04:02:04.715
101, -20.74, -26.55, -18.64, -21.86, -25.08, -15.00, -16.81, -22.13, -19.02, -23.47, -13.90, -23.89, -25.53, -24.83, -21.30, -18.10, 0.000, 0.000, 0.000, 04:02:04.719
102, -20.74, -26.55, -18.64, -21.86, -25.08, -15.00, -16.81, -22.13, -18.73, -23.56, -13.81, -23.98, -25.53, -24.77, -21.10, -18.08, 0.000, 0.000, 0.000, 04:02:04.721
103, -20.81, -26.55, -18.62, -22.08, -24.99, -14.82, -16.72, -22.06, -18.73, -23.56, -13.81, -23.98, -25.53, -24.77, -21.10, -18.08, 0.000, 0.000, 0.000, 04:02:04.727
104, -20.81, -26.55, -18.62, -22.08, -24.99, -14.82, -16.72, -22.06, -18.89, -23.49, -13.88, -24.03, -25.32, -25.01, -21.17, -18.10, 0.000, 0.000, 0.000, 04:02:04.730
105, -20.56, -26.84, -18.31, -22.13, -25.21, -14.89, -16.92, -22.22, -18.89, -23.49, -13.88, -24.03, -25.32, -25.01, -21.17, -18.10, 0.012, 0.944, 0.296, 04:02:04.733
106, -20.56, -26.84, -18.31, -22.13, -25.21, -14.89, -16.92, -22.22, -18.75, -23.47, -13.77, -23.92, -25.44, -24.86, -21.12, -18.06, 0.000, 0.000, 0.000, 04:02:04.738
107, -20.43, -26.76, -18.42, -22.08, -25.19, -15.00, -16.96, -21.99, -18.75, -23.47, -13.77, -23.92, -25.44, -24.86, -21.12, -18.06, 0.000, 0.000, 0.000, 04:02:04.742
108, -20.43, -26.76, -18.42, -22.08, -25.19, -15.00, -16.96, -21.99, -18.80, -23.42, -13.88, -24.10, -25.44, -24.86, -21.12, -18.19, 0.000, 0.000, 0.000, 04:02:04.746
109, -20.79, -26.35, -18.37, -22.11, -24.77, -14.98, -16.85, -22.02, -18.80, -23.42, -13.88, -24.10, -25.44, -24.86, -21.12, -18.19, 0.000, 0.000, 0.000, 04:02:04.752
110, -20.79, -26.35, -18.37, -22.11, -24.77, -14.98, -16.85, -22.02, -18.80, -23.34, -14.01, -24.10, -25.41, -24.94, -21.30, -18.06, 0.000, 0.000, 0.000, 04:02:04.754
111, -20.74, -26.51, -18.42, -22.08, -24.99, -15.11, -16.56, -22.24, -18.80, -23.34, -14.01, -24.10, -25.41, -24.94, -21.30, -18.06, 0.000, 0.000, 0.000, 04:02:04.758
112, -20.74, -26.51, -18.42, -22.08, -24.99, -15.11, -16.56, -22.24, -18.82, -23.34, -14.06, -23.87, -25.30, -24.74, -21.19, -18.24, 0.000, 0.000, 0.000, 04:02:04.762
113, -20.72, -26.53, -18.69, -22.24, -25.12, -14.93, -16.61, -22.15, -18.82, -23.34, -14.06, -23.87, -25.30, -24.74, -21.19, -18.24, 0.000, 0.000, 0.000, 04:02:04.765
114, -20.72, -26.53, -18.69, -22.24, -25.12, -14.93, -16.61, -22.15, -19.09, -23.36, -14.01, -23.89, -25.21, -24.94, -21.28, -17.93, 0.004, 0.946, 0.282, 04:02:04.770
115, -20.68, -26.62, -18.53, -21.95, -25.01, -14.73, -16.85, -22.02, -19.09, -23.36, -14.01, -23.89, -25.21, -24.94, -21.28, -17.93, 0.000, 0.000, 0.000, 04:02:04.774
116, -20.68, -26.62, -18.53, -21.95, -25.01, -14.73, -16.85, -22.02, -18.73, -23.49, -13.95, -24.25, -25.32, -24.90, -21.10, -18.17, 0.000, 0.000, 0.000, 04:02:04.777
117, -20.79, -26.33, -18.28, -21.95, -24.99, -14.82, -16.74, -22.11, -18.73, -23.49, -13.95, -24.25, -25.32, -24.90, -21.10, -18.17, 0.000, 0.000, 0.000, 04:02:04.782
118, -20.79, -26.33, -18.28, -21.95, -24.99, -14.82, -16.74, -22.11, -18.71, -23.60, -13.81, -24.01, -25.30, -24.81, -21.37, -18.13, 0.000, 0.000, 0.000, 04:02:04.787
119, -20.94, -26.55, -18.62, -22.20, -24.97, -15.11, -16.79, -22.04, -18.71, -23.60, -13.81, -24.01, -25.30, -24.81, -21.37, -18.13, 0.000, 0.000, 0.000, 04:02:04.790
120, -20.94, -26.55, -18.62, -22.20, -24.97, -15.11, -16.79, -22.04, -18.93, -23.40, -13.95, -23.94, -25.21, -24.92, -21.37, -18.13, 0.000, 0.000, 0.000, 04:02:04.795
121, -20.76, -26.67, -18.53, -21.97, -24.94, -14.95, -16.67, -22.49, -18.93, -23.40, -13.95, -23.94, -25.21, -24.92, -21.37, -18.13, 0.000, 0.000, 0.000, 04:02:04.798
122, -20.76, -26.67, -18.53, -21.97, -24.94, -14.95, -16.67, -22.49, -18.93, -23.49, -13.97, -24.05, -25.30, -24.74, -21.37, -18.10, 0.000, 0.000, 0.000, 04:02:04.803
123, -20.74, -26.58, -18.42, -21.99, -24.90, -15.02, -16.94, -22.08, -18.93, -23.49, -13.97, -24.05, -25.30, -24.74, -21.37, -18.10, 0.000, 0.000, 0.000, 04:02:04.807
124, -20.74, -26.58, -18.42, -21.99, -24.90, -15.02, -16.94, -22.08, -18.73, -23.36, -14.06, -23.92, -25.44, -24.83, -21.28, -18.13, 0.016, 0.930, 0.286, 04:02:04.810
125, -20.68, -26.53, -18.53, -21.95, -24.88, -14.91, -16.79, -22.08, -18.73, -23.36, -14.06, -23.92, -25.44, -24.83, -21.28, -18.13, 0.000, 0.000, 0.000, 04:02:04.814
126, -20.68, -26.53, -18.53, -21.95, -24.88, -14.91, -16.79, -22.08, -18.95, -23.47, -14.10, -23.94, -25.59, -24.81, -21.23, -17.99, 0.000, 0.000, 0.000, 04:02:04.816
127, -20.65, -26.46, -18.48, -21.97, -24.81, -14.84, -16.79, -22.20, -18.95, -23.47, -14.10, -23.94, -25.59, -24.81, -21.23, -17.99, 0.000, 0.000, 0.000, 04:02:04.822
128, -20.65, -26.46, -18.48, -21.97, -24.81, -14.84, -16.79, -22.20, -18.78, -23.31, -13.84, -24.05, -25.37, -24.90, -21.28, -17.97, 0.000, 0.000, 0.000, 04:02:04.825
129, -20.74, -26.51, -18.44, -22.06, -24.94, -15.04, -16.88, -22.17, -18.78, -23.31, -13.84, -24.05, -25.37, -24.90, -21.28, -17.97, 0.000, 0.000, 0.000, 04:02:04.830
130, -20.74, -26.51, -18.44, -22.06, -24.94, -15.04, -16.88, -22.17, -18.89, -23.56, -13.93, -24.05, -25.28, -24.86, -21.17, -18.13, 0.000, 0.000, 0.000, 04:02:04.834
131, -20.90, -26.67, -18.69, -22.15, -24.97, -15.11, -17.01, -22.08, -18.89, -23.56, -13.93, -24.05, -25.28, -24.86, -21.17, -18.13, 0.000, 0.000, 0.000, 04:02:04.837
132, -20.90, -26.67, -18.69, -22.15, -24.97, -15.11, -17.01, -22.08, -18.91, -23.56, -13.95, -24.27, -25.39, -24.81, -21.35, -17.84, 0.000, 0.000, 0.000, 04:02:04.841
133, -20.81, -26.62, -18.60, -22.15, -25.03, -14.93, -16.83, -22.04, -18.91, -23.56, -13.95, -24.27, -25.39, -24.81, -21.35, -17.84, 0.000, 0.000, 0.000, 04:02:04.844
134, -20.81, -26.62, -18.60, -22.15, -25.03, -14.93, -16.83, -22.04, -18.82, -23.38, -13.93, -23.89, -25.30, -24.74, -21.19, -18.10, 0.012, 0.938, 0.276, 04:02:04.850
135, -20.94, -26.42, -18.42, -21.95, -24.97, -14.91, -16.72, -22.20, -18.82, -23.38, -13.93, -23.89, -25.30, -24.74, -21.19, -18.10, 0.000, 0.000, 0.000, 04:02:04.854
136, -20.94, -26.42, -18.42, -21.95, -24.97, -14.91, -16.72, -22.20, -18.93, -23.36, -13.93, -23.85, -25.35, -24.99, -21.12, -18.02, 0.000, 0.000, 0.000, 04:02:04.857
137, -20.81, -26.60, -18.51, -22.26, -24.99, -14.93, -16.79, -22.02, -18.93, -23.36, -13.93, -23.85, -25.35, -24.99, -21.12, -18.02, 0.000, 0.000, 0.000, 04:02:04.862
138, -20.81, -26.60, -18.51, -22.26, -24.99, -14.93, -16.79, -22.02, -18.93, -23.54, -13.90, -23.67, -25.46, -24.94, -21.08, -17.93, 0.000, 0.000, 0.000, 04:02:04.864
139, -20.97, -26.58, -18.55, -22.08, -25.08, -14.80, -16.88, -22.17, -18.93, -23.54, -13.90, -23.67, -25.46, -24.94, -21.08, -17.93, 0.000, 0.000, 0.000, 04:02:04.869
140, -20.97, -26.58, -18.55, -22.08, -25.08, -14.80, -16.88, -22.17, -18.84, -23.40, -13.97, -23.78, -25.46, -24.65, -21.26, -17.99, 0.000, 0.000, 0.000, 04:02:04.874
141, -20.99, -26.60, -18.80, -22.08, -25.15, -14.98, -16.92, -22.11, -18.84, -23.40, -13.97, -23.78, -25.46, -24.65, -21.26, -17.99, 0.000, 0.000, 0.000, 04:02:04.879
142, -20.99, -26.60, -18.80, -22.08, -25.15, -14.98, -16.92, -22.11, -18.73, -23.54, -14.10, -23.96, -25.66, -24.74, -21.17, -18.04, 0.000, 0.000, 0.000, 04:02:04.882
143, -20.81, -26.69, -18.57, -22.04, -24.94, -14.89, -16.83, -22.11, -18.73, -23.54, -14.10, -23.96, -25.66, -24.74, -21.17, -18.04, 0.000, 0.000, 0.000, 04:02:04.886
144, -20.81, -26.69, -18.57, -22.04, -24.94, -14.89, -16.83, -22.11, -18.86, -23.67, -14.10, -24.03, -25.32, -24.77, -21.21, -18.19, 0.004, 0.934, 0.286, 04:02:04.890
145, -20.65, -26.35, -18.53, -22.06, -24.74, -14.75, -16.65, -22.31, -18.86, -23.67, -14.10, -24.03, -25.32, -24.77, -21.21, -18.19, 0.000, 0.000, 0.000, 04:02:04.892
146, -20.65, -26.35, -18.53, -22.06, -24.74, -14.75, -16.65, -22.31, -18.91, -23.51, -13.95, -24.07, -25.28, -24.92, -21.35, -18.19, 0.000, 0.000, 0.000, 04:02:04.897
147, -20.68, -26.64, -18.64, -22.15, -25.03, -14.98, -16.72, -22.20, -18.91, -23.51, -13.95, -24.07, -25.28, -24.92, -21.35, -18.19, 0.000, 0.000, 0.000, 04:02:04.901
148, -20.68, -26.64, -18.64, -22.15, -25.03, -14.98, -16.72, -22.20, -19.02, -23.51, -13.81, -24.05, -25.48, -24.88, -21.19, -18.28, 0.000, 0.000, 0.000, 04:02:04.904
149, -20.79, -26.80, -18.64, -22.08, -25.15, -14.89, -16.47, -21.86, -19.02, -23.51, -13.81, -24.05, -25.48, -24.88, -21.19, -18.28, 0.000, 0.000, 0.000, 04:02:04.910
150, -20.79, -26.80, -18.64, -22.08, -25.15, -14.89, -16.47, -21.86, -18.89, -23.49, -13.90, -23.92, -25.30, -24.61, -21.26, -18.06, 0.000, 0.000, 0.000, 04:02:04.914
151, -20.70, -26.73, -18.57, -22.13, -25.12, -14.98, -16.79, -22.15, -18.89, -23.49, -13.90, -23.92, -25.30, -24.61, -21.26, -18.06, 0.000, 0.000, 0.000, 04:02:04.918
152, -20.70, -26.73, -18.57, -22.13, -25.12, -14.98, -16.79, -22.15, -19.02, -23.49, -13.97, -23.83, -25.30, -24.86, -21.17, -17.97, 0.000, 0.000, 0.000, 04:02:04.921
153, -20.74, -26.40, -18.37, -21.99, -24.88, -14.86, -16.88, -21.70, -19.02, -23.49, -13.97, -23.83, -25.30, -24.86, -21.17, -17.97, 0.000, 0.000, 0.000, 04:02:04.925
154, -20.74, -26.40, -18.37, -21.99, -24.88, -14.86, -16.88, -21.70, -19.09, -23.47, -14.13, -23.94, -25.41, -24.72, -21.12, -18.17, 0.014, 0.946, 0.302, 04:02:04.929
155, -20.81, -26.53, -18.57, -22.13, -25.17, -14.82, -16.74, -22.08, -19.09, -23.47, -14.13, -23.94, -25.41, -24.72, -21.12, -18.17, 0.000, 0.000, 0.000, 04:02:04.932
156, -20.81, -26.53, -18.57, -22.13, -25.17, -14.82, -16.74, -22.08, -18.86, -23.45, -13.86, -23.96, -25.30, -24.63, -21.12, -17.90, 0.000, 0.000, 0.000, 04:02:04.938
157, -20.85, -26.64, -18.40, -21.90, -25.12, -14.77, -16.63, -22.11, -18.86, -23.45, -13.86, -23.96, -25.30, -24.63, -21.12, -17.90, 0.000, 0.000, 0.000, 04:02:04.942
158, -20.85, -26.64, -18.40, -21.90, -25.12, -14.77, -16.63, -22.11, -18.66, -23.69, -13.75, -24.01, -25.37, -24.94, -21.28, -18.10, 0.000, 0.000, 0.000, 04:02:04.945
159, -20.83, -26.44, -18.48, -22.04, -25.10, -14.71, -16.67, -22.15, -18.66, -23.69, -13.75, -24.01, -25.37, -24.94, -21.28, -18.10, 0.000, 0.000, 0.000, 04:02:04.950
160, -20.83, -26.44, -18.48, -22.04, -25.10, -14.71, -16.67, -22.15, -18.91, -23.45, -13.79, -23.89, -25.39, -24.79, -21.23, -18.24, 0.000, 0.000, 0.000, 04:02:04.953
161, -20.76, -26.67, -18.53, -22.04, -25.03, -14.89, -16.65, -22.02, -18.91, -23.45, -13.79, -23.89, -25.39, -24.79, -21.23, -18.24, 0.000, 0.000, 0.000, 04:02:04.957
162, -20.76, -26.67, -18.53, -22.04, -25.03, -14.89, -16.65, -22.02, -18.66, -23.47, -13.63, -23.76, -25.57, -24.88, -21.30, -18.24, 0.000, 0.000, 0.000, 04:02:04.961
163, -20.81, -26.46, -18.53, -22.24, -25.06, -14.93, -16.45, -22.08, -18.66, -23.47, -13.63, -23.76, -25.57, -24.88, -21.30, -18.24, 0.000, 0.000, 0.000, 04:02:04.967
164, -20.81, -26.46, -18.53, -22.24, -25.06, -14.93, -16.45, -22.08, -18.98, -23.34, -13.77, -24.01, -25.32, -24.94, -21.12, -18.22, 0.022, 0.948, 0.312, 04:02:04.970
165, -20.79, -26.64, -18.71, -22.06, -24.99, -14.86, -16.79, -22.24, -18.98, -23.34, -13.77, -24.01, -25.32, -24.94, -21.12, -18.22, 0.000, 0.000, 0.000, 04:02:04.974
166, -20.79, -26.64, -18.71, -22.06, -24.99, -14.86, -16.79, -22.24, -19.16, -23.42, -13.84, -23.96, -25.30, -24.97, -21.21, -18.35, 0.000, 0.000, 0.000, 04:02:04.977
167, -20.65, -26.49, -18.55, -21.93, -24.99, -14.98, -16.72, -22.20, -19.16, -23.42, -13.84, -23.96, -25.30, -24.97, -21.21, -18.35, 0.000, 0.000, 0.000, 04:02:04.981
168, -20.65, -26.49, -18.55, -21.93, -24.99, -14.98, -16.72, -22.20, -19.20, -23.63, -13.97, -24.07, -25.44, -24.94, -21.26, -18.19, 0.000, 0.000, 0.000, 04:02:04.984
169, -20.76, -26.53, -18.53, -22.15, -25.06, -15.13, -16.76, -22.02, -19.20, -23.63, -13.97, -24.07, -25.44, -24.94, -21.26, -18.19, 0.000, 0.000, 0.000, 04:02:04.989
170, -20.76, -26.53, -18.53, -22.15, -25.06, -15.13, -16.76, -22.02, -18.95, -23.18, -13.99, -23.87, -25.46, -24.65, -21.19, -17.88, 0.000, 0.000, 0.000, 04:02:04.993
171, -20.85, -26.38, -18.69, -22.17, -25.10, -14.95, -16.85, -22.20, -18.95, -23.18, -13.99, -23.87, -25.46, -24.65, -21.19, -17.88, 0.000, 0.000, 0.000, 04:02:04.998
172, -20.85, -26.38, -18.69, -22.17, -25.10, -14.95, -16.85, -22.20, -18.71, -23.40, -13.99, -24.18, -25.48, -24.81, -21.12, -18.10, 0.000, 0.000, 0.000, 04:02:05.001
173, -20.81, -26.53, -18.73, -22.08, -24.94, -14.98, -16.83, -22.26, -18.71, -23.40, -13.99, -24.18, -25.48, -24.81, -21.12, -18.10, 0.044, 0.944, 0.308, 04:02:05.005
174, -20.81, -26.53, -18.73, -22.08, -24.94, -14.98, -16.83, -22.26, -18.82, -23.27, -14.04, -24.23, -25.50, -24.90, -21.10, -17.99, 0.000, 0.000, 0.000, 04:02:05.009
175, -20.90, -26.51, -18.71, -21.82, -25.06, -15.11, -16.96, -22.17, -18.82, -23.27, -14.04, -24.23, -25.50, -24.90, -21.10, -17.99, 0.000, 0.000, 0.000, 04:02:05.013
176, -20.90, -26.51, -18.71, -21.82, -25.06, -15.11, -16.96, -22.17, -18.82, -23.63, -13.81, -24.07, -25.46, -24.77, -21.21, -17.88, 0.000, 0.000, 0.000, 04:02:05.016
177, -20.83, -26.55, -18.60, -22.11, -24.94, -14.80, -16.81, -22.13, -18.82, -23.63, -13.81, -24.07, -25.46, -24.77, -21.21, -17.88, 0.000, 0.000, 0.000, 04:02:05.021
178, -20.83, -26.55, -18.60, -22.11, -24.94, -14.80, -16.81, -22.13, -18.86, -23.58, -13.88, -24.10, -25.55, -24.92, -21.37, -18.06, 0.000, 0.000, 0.000, 04:02:05.026
179, -20.79, -26.49, -18.62, -22.02, -24.97, -15.15, -16.85, -22.08, -18.86, -23.58, -13.88, -24.10, -25.55, -24.92, -21.37, -18.06, 0.000, 0.000, 0.000, 04:02:05.029
180, -20.79, -26.49, -18.62, -22.02, -24.97, -15.15, -16.85, -22.08, -18.84, -23.54, -13.90, -24.10, -25.41, -24.88, -21.17, -18.24, 0.000, 0.000, 0.000, 04:02:05.033
181, -20.63, -26.38, -18.48, -22.04, -25.08, -14.95, -16.79, -22.06, -18.84, -23.54, -13.90, -24.10, -25.41, -24.88, -21.17, -18.24, 0.000, 0.000, 0.000, 04:02:05.038
182, -20.63, -26.38, -18.48, -22.04, -25.08, -14.95, -16.79, -22.06, -18.91, -23.58, -13.97, -24.12, -25.59, -24.68, -21.10, -18.19, 0.000, 0.000, 0.000, 04:02:05.042
183, -20.72, -26.42, -18.44, -21.93, -24.99, -14.75, -16.81, -22.04, -18.91, -23.58, -13.97, -24.12, -25.59, -24.68, -21.10, -18.19, 0.016, 0.962, 0.314, 04:02:05.045
184, -20.72, -26.42, -18.44, -21.93, -24.99, -14.75, -16.81, -22.04, -18.98, -23.72, -14.01, -24.03, -25.32, -24.74, -20.88, -18.02, 0.000, 0.000, 0.000, 04:02:05.050
185, -20.61, -26.62, -18.73, -21.99, -24.94, -14.95, -16.88, -22.28, -18.98, -23.72, -14.01, -24.03, -25.32, -24.74, -20.88, -18.02, 0.000, 0.000, 0.000, 04:02:05.052
186, -20.61, -26.62, -18.73, -21.99, -24.94, -14.95, -16.88, -22.28, -19.07, -23.65, -13.95, -24.03, -25.44, -24.92, -21.21, -18.08, 0.000, 0.000, 0.000, 04:02:05.056
187, -20.65, -26.67, -18.75, -22.04, -24.97, -15.02, -16.79, -22.22, -19.07, -23.65, -13.95, -24.03, -25.44, -24.92, -21.21, -18.08, 0.000, 0.000, 0.000, 04:02:05.064
188, -20.65, -26.67, -18.75, -22.04, -24.97, -15.02, -16.79, -22.22, -18.84, -23.45, -13.90, -24.18, -25.10, -24.97, -21.06, -17.97, 0.000, 0.000, 0.000, 04:02:05.068
189, -20.79, -26.67, -18.71, -22.15, -25.03, -14.93, -16.65, -21.93, -18.84, -23.45, -13.90, -24.18, -25.10, -24.97, -21.06, -17.97, 0.000, 0.000, 0.000, 04:02:05.071
190, -20.79, -26.67, -18.71, -22.15, -25.03, -14.93, -16.65, -21.93, -18.80, -23.36, -14.10, -23.87, -25.37, -24.86, -21.12, -17.88, 0.000, 0.000, 0.000, 04:02:05.075
191, -20.72, -26.76, -18.55, -22.04, -24.79, -14.95, -16.92, -21.95, -18.80, -23.36, -14.10, -23.87, -25.37, -24.86, -21.12, -17.88, 0.000, 0.000, 0.000, 04:02:05.078
192, -20.72, -26.76, -18.55, -22.04, -24.79, -14.95, -16.92, -21.95, -19.11, -23.40, -13.97, -24.05, -25.37, -24.65, -21.19, -17.97, 0.000, 0.000, 0.000, 04:02:05.081
193, -20.85, -26.46, -18.40, -22.08, -24.90, -15.02, -16.90, -22.17, -19.11, -23.40, -13.97, -24.05, -25.37, -24.65, -21.19, -17.97, 0.010, 0.958, 0.304, 04:02:05.085
194, -20.85, -26.46, -18.40, -22.08, -24.90, -15.02, -16.90, -22.17, -19.04, -23.45, -13.99, -24.05, -25.37, -25.06, -21.28, -17.95, 0.000, 0.000, 0.000, 04:02:05.089
195, -20.68, -26.67, -18.46, -21.95, -24.99, -14.86, -16.79, -22.31, -19.04, -23.45, -13.99, -24.05, -25.37, -25.06, -21.28, -17.95, 0.000, 0.000, 0.000, 04:02:05.094
196, -20.68, -26.67, -18.46, -21.95, -24.99, -14.86, -16.79, -22.31, -18.75, -23.47, -13.88, -24.14, -25.35, -24.74, -21.12, -17.95, 0.000, 0.000, 0.000, 04:02:05.097
197, -20.70, -26.60, -18.42, -22.02, -24.79, -14.75, -16.56, -22.20, -18.75, -23.47, -13.88, -24.14, -25.35, -24.74, -21.12, -17.95, 0.000, 0.000, 0.000, 04:02:05.100
198, -20.70, -26.60, -18.42, -22.02, -24.79, -14.75, -16.56, -22.20, -18.91, -23.47, -13.86, -24.23, -25.39, -24.81, -20.94, -18.22, 0.000, 0.000, 0.000, 04:02:05.105
199, -20.70, -26.49, -18.40, -21.90, -25.17, -14.77, -16.63, -22.06, -18.91, -23.47, -13.86, -24.23, -25.39, -24.81, -20.94, -18.22, 0.000, 0.000, 0.000, 04:02:05.110
200, -20.70, -26.49, -18.40, -21.90, -25.17, -14.77, -16.63, -22.06, -18.66, -23.42, -13.70, -24.18, -25.32, -24.86, -21.26, -18.06, 0.000, 0.000, 0.000, 04:02:05.114
201, -20.72, -26.55, -18.51, -22.06, -25.06, -14.82, -16.52, -21.93, -18.66, -23.42, -13.70, -24.18, -25.32, -24.86, -21.26, -18.06, 0.000, 0.000, 0.000, 04:02:05.119
202, -20.72, -26.55, -18.51, -22.06, -25.06, -14.82, -16.52, -21.93, -18.86, -23.49, -14.15, -24.01, -25.21, -24.90, -21.28, -18.13, 0.000, 0.000, 0.000, 04:02:05.122
203, -20.79, -26.46, -18.57, -22.13, -24.94, -14.77, -16.65, -22.11, -18.86, -23.49, -14.15, -24.01, -25.21, -24.90, -21.28, -18.13, 0.010, 0.946, 0.298, 04:02:05.126
204, -20.79, -26.46, -18.57, -22.13, -24.94, -14.77, -16.65, -22.11, -19.02, -23.51, -13.88, -24.03, -25.32, -24.81, -21.14, -18.02, 0.000, 0.000, 0.000, 04:02:05.129
205, -20.72, -26.31, -18.57, -22.06, -25.01, -14.95, -16.85, -22.06, -19.02, -23.51, -13.88, -24.03, -25.32, -24.81, -21.14, -18.02, 0.000, 0.000, 0.000, 04:02:05.133
