%OpenBCI Raw EEG Data
%
%Sample Rate = 250.0 Hz
%First Column = SampleIndex
%Last Column = Timestamp 
%Other Columns = EEG data in microvolts followed by Accel Data (in G) interleaved with Aux Data
0, 0.00, 0.00, 0.00, 0.00, 0.00, 0.00, 0.00, 0.00, -27870.03, -25640.33, -4432.89, -4674.42, -26773.19, -26017.38, -26766.57, -28232.67, 0.206, 0.844, 0.524, 11:22:56.172
1, 0.00, -26.35, -19.36, -22.89, -24.43, -15.56, -18.04, -22.60, -27870.03, -25640.33, -4432.89, -4674.42, -26773.19, -26017.38, -26766.57, -28232.67, 0.000, 0.000, 0.000, 11:22:56.180
2, 0.00, -26.35, -19.36, -22.89, -24.43, -15.56, -18.04, -22.60, -18.89, -23.42, -13.97, -23.89, -25.46, -24.77, -21.23, -18.04, 0.000, 0.000, 0.000, 11:22:56.181
3, 0.00, -26.29, -19.31, -22.80, -24.27, -15.49, -17.97, -22.69, -18.89, -23.42, -13.97, -23.89, -25.46, -24.77, -21.23, -18.04, 0.000, 0.000, 0.000, 11:22:56.187
4, 0.00, -26.29, -19.31, -22.80, -24.27, -15.49, -17.97, -22.69, -18.86, -23.51, -14.15, -23.94, -25.30, -24.74, -20.99, -17.97, 0.000, 0.000, 0.000, 11:22:56.188
5, 0.00, -26.31, -19.07, -22.71, -24.34, -15.65, -17.88, -22.69, -18.86, -23.51, -14.15, -23.94, -25.30, -24.74, -20.99, -17.97, 0.000, 0.000, 0.000, 11:22:56.194
6, 0.00, -26.31, -19.07, -22.71, -24.34, -15.65, -17.88, -22.69, -18.93, -23.45, -14.01, -23.85, -25.15, -24.83, -21.03, -18.06, 0.192, 0.804, 0.524, 11:22:56.194
7, 0.00, -26.26, -19.18, -22.60, -24.27, -15.53, -17.81, -22.82, -18.93, -23.45, -14.01, -23.85, -25.15, -24.83, -21.03, -18.06, 0.000, 0.000, 0.000, 11:22:56.201
8, 0.00, -26.26, -19.18, -22.60, -24.27, -15.53, -17.81, -22.82, -19.00, -23.45, -13.77, -23.85, -25.10, -24.81, -21.03, -17.99, 0.000, 0.000, 0.000, 11:22:56.206
9, 0.00, -26.13, -19.36, -22.78, -24.36, -15.56, -17.86, -22.75, -19.00, -23.45, -13.77, -23.85, -25.10, -24.81, -21.03, -17.99, 0.000, 0.000, 0.000, 11:22:56.207
10, 0.00, -26.13, -19.36, -22.78, -24.36, -15.56, -17.86, -22.75, -18.93, -23.29, -13.88, -23.98, -25.03, -24.70, -20.97, -17.95, 0.000, 0.000, 0.000, 11:22:56.213
11, 0.00, -26.20, -19.33, -22.66, -24.39, -15.56, -17.81, -22.73, -18.93, -23.29, -13.88, -23.98, -25.03, -24.70, -20.97, -17.95, 0.000, 0.000, 0.000, 11:22:56.218
12, 0.00, -26.20, -19.33, -22.66, -24.39, -15.56, -17.81, -22.73, -18.89, -23.31, -13.95, -23.96, -25.12, -24.74, -21.17, -17.93, 0.000, 0.000, 0.000, 11:22:56.219
13, 0.00, -26.26, -19.22, -22.64, -24.34, -15.56, -17.97, -22.58, -18.89, -23.31, -13.95, -23.96, -25.12, -24.74, -21.17, -17.93, 0.000, 0.000, 0.000, 11:22:56.225
14, 0.00, -26.26, -19.22, -22.64, -24.34, -15.56, -17.97, -22.58, -19.00, -23.49, -13.90, -24.01, -25.21, -24.79, -21.03, -18.02, 0.000, 0.000, 0.000, 11:22:56.231
15, 0.00, -26.35, -19.22, -22.80, -24.41, -15.58, -17.99, -22.53, -19.00, -23.49, -13.90, -24.01, -25.21, -24.79, -21.03, -18.02, 0.000, 0.000, 0.000, 11:22:56.232
16, 0.00, -26.35, -19.22, -22.80, -24.41, -15.58, -17.99, -22.53, -18.91, -23.54, -14.08, -24.10, -25.28, -24.94, -21.26, -18.04, 0.176, 0.786, 0.518, 11:22:56.239
17, 0.00, -26.17, -19.27, -23.04, -24.41, -15.31, -17.70, -22.91, -18.91, -23.54, -14.08, -24.10, -25.28, -24.94, -21.26, -18.04, 0.000, 0.000, 0.000, 11:22:56.239
18, 0.00, -26.17, -19.27, -23.04, -24.41, -15.31, -17.70, -22.91, -18.69, -23.51, -14.01, -24.05, -25.32, -24.81, -21.23, -17.93, 0.000, 0.000, 0.000, 11:22:56.246
19, 0.00, -26.46, -19.36, -22.96, -24.34, -15.45, -17.81, -22.71, -18.69, -23.51, -14.01, -24.05, -25.32, -24.81, -21.23, -17.93, 0.000, 0.000, 0.000, 11:22:56.246
20, 0.00, -26.46, -19.36, -22.96, -24.34, -15.45, -17.81, -22.71, -18.89, -23.54, -13.88, -23.87, -25.24, -24.79, -21.10, -17.93, 0.000, 0.000, 0.000, 11:22:56.253
21, 0.00, -26.40, -19.33, -22.55, -24.39, -15.31, -17.77, -22.82, -18.89, -23.54, -13.88, -23.87, -25.24, -24.79, -21.10, -17.93, 0.000, 0.000, 0.000, 11:22:56.258
22, 0.00, -26.40, -19.33, -22.55, -24.39, -15.31, -17.77, -22.82, -18.89, -23.40, -13.79, -23.92, -25.32, -24.97, -21.19, -17.97, 0.000, 0.000, 0.000, 11:22:56.259
23, 0.00, -26.15, -19.20, -22.89, -24.50, -15.58, -17.88, -22.75, -18.89, -23.40, -13.79, -23.92, -25.32, -24.97, -21.19, -17.97, 0.000, 0.000, 0.000, 11:22:56.264
24, 0.00, -26.15, -19.20, -22.89, -24.50, -15.58, -17.88, -22.75, -19.00, -23.56, -13.81, -23.98, -25.39, -24.70, -21.26, -18.13, 0.000, 0.000, 0.000, 11:22:56.265
25, 0.00, -26.24, -19.13, -22.78, -24.54, -15.56, -17.90, -22.75, -19.00, -23.56, -13.81, -23.98, -25.39, -24.70, -21.26, -18.13, 0.000, 0.000, 0.000, 11:22:56.271
26, 0.00, -26.24, -19.13, -22.78, -24.54, -15.56, -17.90, -22.75, -18.98, -23.27, -13.99, -23.72, -25.37, -24.74, -21.10, -18.10, 0.166, 0.782, 0.506, 11:22:56.276
27, 0.00, -26.24, -19.36, -22.62, -24.23, -15.42, -17.86, -22.78, -18.98, -23.27, -13.99, -23.72, -25.37, -24.74, -21.10, -18.10, 0.000, 0.000, 0.000, 11:22:56.281
28, 0.00, -26.24, -19.36, -22.62, -24.23, -15.42, -17.86, -22.78, -18.75, -23.42, -14.01, -23.89, -25.30, -24.86, -21.17, -18.13, 0.000, 0.000, 0.000, 11:22:56.282
29, 0.00, -26.29, -19.24, -22.75, -24.41, -15.62, -17.90, -22.55, -18.75, -23.42, -14.01, -23.89, -25.30, -24.86, -21.17, -18.13, 0.000, 0.000, 0.000, 11:22:56.288
30, 0.00, -26.29, -19.24, -22.75, -24.41, -15.62, -17.90, -22.55, -18.95, -23.60, -13.99, -23.96, -25.30, -24.77, -21.03, -18.19, 0.000, 0.000, 0.000, 11:22:56.293
31, 0.00, -26.08, -19.29, -22.75, -24.45, -15.40, -17.77, -22.64, -18.95, -23.60, -13.99, -23.96, -25.30, -24.77, -21.03, -18.19, 0.000, 0.000, 0.000, 11:22:56.294
32, 0.00, -26.08, -19.29, -22.75, -24.45, -15.40, -17.77, -22.64, -18.86, -23.38, -13.72, -23.92, -25.15, -24.70, -21.08, -18.02, 0.000, 0.000, 0.000, 11:22:56.299
33, 0.00, -26.29, -19.22, -22.82, -24.56, -15.40, -17.90, -22.53, -18.86, -23.38, -13.72, -23.92, -25.15, -24.70, -21.08, -18.02, 0.000, 0.000, 0.000, 11:22:56.304
34, 0.00, -26.29, -19.22, -22.82, -24.56, -15.40, -17.90, -22.53, -18.71, -23.38, -13.88, -24.16, -25.41, -24.77, -21.19, -18.13, 0.000, 0.000, 0.000, 11:22:56.310
35, 0.00, -26.42, -19.42, -22.53, -24.41, -15.40, -17.88, -22.62, -18.71, -23.38, -13.88, -24.16, -25.41, -24.77, -21.19, -18.13, 0.000, 0.000, 0.000, 11:22:56.311
36, 0.00, -26.42, -19.42, -22.53, -24.41, -15.40, -17.88, -22.62, -18.75, -23.18, -13.86, -23.89, -25.08, -24.81, -21.06, -17.99, 0.154, 0.806, 0.506, 11:22:56.318
37, 0.00, -26.42, -19.20, -22.87, -24.48, -15.56, -17.97, -22.82, -18.75, -23.18, -13.86, -23.89, -25.08, -24.81, -21.06, -17.99, 0.000, 0.000, 0.000, 11:22:56.320
38, 0.00, -26.42, -19.20, -22.87, -24.48, -15.56, -17.97, -22.82, -18.86, -23.18, -13.88, -23.94, -25.01, -24.83, -21.08, -17.97, 0.000, 0.000, 0.000, 11:22:56.321
39, 0.00, -26.22, -19.20, -22.98, -24.36, -15.58, -17.77, -22.82, -18.86, -23.18, -13.88, -23.94, -25.01, -24.83, -21.08, -17.97, 0.000, 0.000, 0.000, 11:22:56.327
40, 0.00, -26.22, -19.20, -22.98, -24.36, -15.58, -17.77, -22.82, -18.82, -23.34, -14.01, -23.74, -25.44, -24.81, -21.06, -18.10, 0.000, 0.000, 0.000, 11:22:56.332
41, 0.00, -26.15, -19.38, -22.87, -24.63, -15.49, -17.97, -22.87, -18.82, -23.34, -14.01, -23.74, -25.44, -24.81, -21.06, -18.10, 0.000, 0.000, 0.000, 11:22:56.819
42, 0.00, -26.15, -19.38, -22.87, -24.63, -15.49, -17.97, -22.87, -19.00, -23.65, -13.93, -24.03, -25.44, -24.88, -21.08, -17.95, 0.000, 0.000, 0.000, 11:22:56.819
43, 0.00, -26.33, -19.24, -22.69, -24.50, -15.40, -17.93, -22.82, -19.00, -23.65, -13.93, -24.03, -25.44, -24.88, -21.08, -17.95, 0.000, 0.000, 0.000, 11:22:56.819
44, 0.00, -26.33, -19.24, -22.69, -24.50, -15.40, -17.93, -22.82, -18.89, -23.45, -13.90, -24.14, -25.32, -24.88, -21.19, -17.95, 0.000, 0.000, 0.000, 11:22:56.820
45, 0.00, -26.17, -19.27, -22.69, -24.41, -15.33, -17.79, -22.80, -18.89, -23.45, -13.90, -24.14, -25.32, -24.88, -21.19, -17.95, 0.000, 0.000, 0.000, 11:22:56.820
46, 0.00, -26.17, -19.27, -22.69, -24.41, -15.33, -17.79, -22.80, -18.91, -23.54, -13.97, -24.03, -25.24, -24.92, -20.97, -18.13, 0.154, 0.846, 0.506, 11:22:56.821
47, 0.00, -26.08, -19.29, -22.98, -24.54, -15.51, -17.75, -23.00, -18.91, -23.54, -13.97, -24.03, -25.24, -24.92, -20.97, -18.13, 0.000, 0.000, 0.000, 11:22:56.821
48, 0.00, -26.08, -19.29, -22.98, -24.54, -15.51, -17.75, -23.00, -18.71, -23.49, -14.17, -24.01, -25.12, -24.92, -21.14, -18.10, 0.000, 0.000, 0.000, 11:22:56.821
49, 0.00, -26.24, -19.33, -22.82, -24.32, -15.51, -18.08, -22.87, -18.71, -23.49, -14.17, -24.01, -25.12, -24.92, -21.14, -18.10, 0.000, 0.000, 0.000, 11:22:56.821
50, 0.00, -26.24, -19.33, -22.82, -24.32, -15.51, -18.08, -22.87, -18.53, -23.36, -13.95, -23.92, -25.39, -24.70, -21.21, -17.90, 0.000, 0.000, 0.000, 11:22:56.822
51, 0.00, -26.29, -19.24, -22.89, -24.25, -15.60, -18.10, -22.66, -18.53, -23.36, -13.95, -23.92, -25.39, -24.70, -21.21, -17.90, 0.000, 0.000, 0.000, 11:22:56.832
52, 0.00, -26.29, -19.24, -22.89, -24.25, -15.60, -18.10, -22.66, -18.69, -23.29, -13.86, -23.96, -25.44, -25.01, -21.08, -18.06, 0.000, 0.000, 0.000, 11:22:56.840
53, 0.00, -26.40, -19.33, -22.78, -24.23, -15.47, -17.86, -22.87, -18.69, -23.29, -13.86, -23.96, -25.44, -25.01, -21.08, -18.06, 0.000, 0.000, 0.000, 11:22:56.843
54, 0.00, -26.40, -19.33, -22.78, -24.23, -15.47, -17.86, -22.87, -18.98, -23.42, -13.88, -23.98, -25.39, -24.65, -21.08, -17.99, 0.000, 0.000, 0.000, 11:22:56.844
55, 0.00, -26.53, -19.31, -22.98, -24.43, -15.36, -18.04, -22.73, -18.98, -23.42, -13.88, -23.98, -25.39, -24.65, -21.08, -17.99, 0.000, 0.000, 0.000, 11:22:56.844
56, 0.00, -26.53, -19.31, -22.98, -24.43, -15.36, -18.04, -22.73, -18.84, -23.27, -13.81, -24.12, -25.41, -24.68, -21.19, -18.04, 0.158, 0.858, 0.514, 11:22:56.844
57, 0.00, -26.33, -19.22, -22.93, -24.32, -15.53, -17.81, -22.69, -18.84, -23.27, -13.81, -24.12, -25.41, -24.68, -21.19, -18.04, 0.000, 0.000, 0.000, 11:22:56.844
58, 0.00, -26.33, -19.22, -22.93, -24.32, -15.53, -17.81, -22.69, -19.02, -23.40, -13.93, -23.89, -25.21, -24.72, -21.01, -17.97, 0.000, 0.000, 0.000, 11:22:56.845
59, 0.00, -26.24, -19.13, -22.96, -24.54, -15.53, -17.70, -22.73, -19.02, -23.40, -13.93, -23.89, -25.21, -24.72, -21.01, -17.97, 0.000, 0.000, 0.000, 11:22:56.845
60, 0.00, -26.24, -19.13, -22.96, -24.54, -15.53, -17.70, -22.73, -18.73, -23.25, -13.86, -23.94, -25.26, -24.65, -21.32, -17.97, 0.000, 0.000, 0.000, 11:22:56.845
61, 0.00, -26.49, -19.31, -23.02, -24.27, -15.60, -17.84, -22.62, -18.73, -23.25, -13.86, -23.94, -25.26, -24.65, -21.32, -17.97, 0.000, 0.000, 0.000, 11:22:56.845
62, 0.00, -26.49, -19.31, -23.02, -24.27, -15.60, -17.84, -22.62, -18.75, -23.49, -13.79, -24.03, -25.30, -24.74, -21.32, -18.17, 0.000, 0.000, 0.000, 11:22:56.846
63, 0.00, -26.33, -19.20, -22.69, -24.27, -15.67, -18.17, -22.55, -18.75, -23.49, -13.79, -24.03, -25.30, -24.74, -21.32, -18.17, 0.000, 0.000, 0.000, 11:22:56.846
64, 0.00, -26.33, -19.20, -22.69, -24.27, -15.67, -18.17, -22.55, -18.80, -23.34, -13.95, -24.03, -25.39, -24.65, -21.17, -18.15, 0.000, 0.000, 0.000, 11:22:56.846
65, 0.00, -26.55, -19.38, -22.66, -24.39, -15.53, -17.95, -22.80, -18.80, -23.34, -13.95, -24.03, -25.39, -24.65, -21.17, -18.15, 0.162, 0.846, 0.526, 11:22:56.846
66, 0.00, -26.55, -19.38, -22.66, -24.39, -15.53, -17.95, -22.80, -18.80, -23.36, -13.75, -24.01, -25.44, -24.74, -21.19, -18.02, 0.000, 0.000, 0.000, 11:22:56.871
67, 0.00, -26.40, -19.31, -22.78, -24.63, -15.58, -18.17, -22.91, -18.80, -23.36, -13.75, -24.01, -25.44, -24.74, -21.19, -18.02, 0.000, 0.000, 0.000, 11:22:56.875
68, 0.00, -26.40, -19.31, -22.78, -24.63, -15.58, -18.17, -22.91, -18.84, -23.38, -13.75, -23.74, -25.30, -24.70, -21.06, -18.13, 0.000, 0.000, 0.000, 11:22:56.875
69, 0.00, -26.44, -19.24, -22.78, -24.54, -15.31, -17.93, -22.87, -18.84, -23.38, -13.75, -23.74, -25.30, -24.70, -21.06, -18.13, 0.000, 0.000, 0.000, 11:22:56.876
70, 0.00, -26.44, -19.24, -22.78, -24.54, -15.31, -17.93, -22.87, -18.86, -23.31, -14.04, -23.85, -25.32, -24.97, -20.99, -18.31, 0.000, 0.000, 0.000, 11:22:56.876
71, 0.00, -26.29, -19.09, -22.71, -24.41, -15.36, -17.88, -22.82, -18.86, -23.31, -14.04, -23.85, -25.32, -24.97, -20.99, -18.31, 0.000, 0.000, 0.000, 11:22:56.876
72, 0.00, -26.29, -19.09, -22.71, -24.41, -15.36, -17.88, -22.82, -18.93, -23.34, -13.88, -23.96, -25.30, -24.77, -21.19, -18.31, 0.000, 0.000, 0.000, 11:22:56.876
73, 0.00, -26.24, -19.20, -22.78, -24.18, -15.36, -17.88, -22.71, -18.93, -23.34, -13.88, -23.96, -25.30, -24.77, -21.19, -18.31, 0.000, 0.000, 0.000, 11:22:56.882
74, 0.00, -26.24, -19.20, -22.78, -24.18, -15.36, -17.88, -22.71, -18.93, -23.58, -13.79, -23.83, -25.48, -24.70, -21.12, -18.13, 0.000, 0.000, 0.000, 11:22:56.884
75, 0.00, -26.20, -19.36, -22.66, -24.56, -15.42, -17.79, -22.78, -18.93, -23.58, -13.79, -23.83, -25.48, -24.70, -21.12, -18.13, 0.176, 0.836, 0.532, 11:22:56.884
76, 0.00, -26.20, -19.36, -22.66, -24.56, -15.42, -17.79, -22.78, -18.55, -23.34, -14.10, -23.89, -25.32, -24.77, -21.03, -18.04, 0.000, 0.000, 0.000, 11:22:56.884
77, 0.00, -26.31, -19.29, -22.84, -24.41, -15.51, -17.75, -22.80, -18.55, -23.34, -14.10, -23.89, -25.32, -24.77, -21.03, -18.04, 0.000, 0.000, 0.000, 11:22:56.885
78, 0.00, -26.31, -19.29, -22.84, -24.41, -15.51, -17.75, -22.80, -18.73, -23.40, -13.88, -23.87, -25.37, -24.63, -21.08, -18.22, 0.000, 0.000, 0.000, 11:22:56.885
79, 0.00, -26.29, -19.36, -22.78, -24.39, -15.31, -17.90, -22.78, -18.73, -23.40, -13.88, -23.87, -25.37, -24.63, -21.08, -18.22, 0.000, 0.000, 0.000, 11:22:56.885
80, 0.00, -26.29, -19.36, -22.78, -24.39, -15.31, -17.90, -22.78, -19.02, -23.22, -13.88, -23.87, -25.50, -24.92, -21.12, -17.81, 0.000, 0.000, 0.000, 11:22:56.885
81, 0.00, -26.29, -19.31, -22.64, -24.45, -15.33, -18.08, -22.78, -19.02, -23.22, -13.88, -23.87, -25.50, -24.92, -21.12, -17.81, 0.000, 0.000, 0.000, 11:22:56.886
82, 0.00, -26.29, -19.31, -22.64, -24.45, -15.33, -18.08, -22.78, -18.73, -23.36, -13.90, -23.89, -25.24, -24.70, -21.12, -17.93, 0.000, 0.000, 0.000, 11:22:56.886
83, 0.00, -26.08, -19.22, -22.66, -24.54, -15.51, -17.88, -22.78, -18.73, -23.36, -13.90, -23.89, -25.24, -24.70, -21.12, -17.93, 0.000, 0.000, 0.000, 11:22:56.886
84, 0.00, -26.08, -19.22, -22.66, -24.54, -15.51, -17.88, -22.78, -18.75, -23.49, -14.04, -23.89, -25.19, -24.68, -21.12, -18.10, 0.000, 0.000, 0.000, 11:22:56.886
85, 0.00, -26.29, -19.24, -22.71, -24.25, -15.74, -17.68, -22.71, -18.75, -23.49, -14.04, -23.89, -25.19, -24.68, -21.12, -18.10, 0.184, 0.832, 0.528, 11:22:56.895
86, 0.00, -26.29, -19.24, -22.71, -24.25, -15.74, -17.68, -22.71, -18.82, -23.45, -13.99, -24.01, -25.44, -25.01, -21.26, -18.04, 0.000, 0.000, 0.000, 11:22:56.896
87, 0.00, -26.29, -19.33, -22.71, -24.30, -15.42, -17.99, -22.78, -18.82, -23.45, -13.99, -24.01, -25.44, -25.01, -21.26, -18.04, 0.000, 0.000, 0.000, 11:22:56.896
88, 0.00, -26.29, -19.33, -22.71, -24.30, -15.42, -17.99, -22.78, -18.78, -23.56, -13.99, -24.01, -25.37, -24.77, -21.30, -18.15, 0.000, 0.000, 0.000, 11:22:56.899
89, 0.00, -26.15, -19.04, -23.02, -24.34, -15.47, -17.86, -22.78, -18.78, -23.56, -13.99, -24.01, -25.37, -24.77, -21.30, -18.15, 0.000, 0.000, 0.000, 11:22:56.899
90, 0.00, -26.15, -19.04, -23.02, -24.34, -15.47, -17.86, -22.78, -18.86, -23.29, -13.93, -24.16, -25.17, -24.88, -21.06, -18.08, 0.000, 0.000, 0.000, 11:22:56.899
91, 0.00, -26.35, -19.29, -22.98, -24.43, -15.60, -17.77, -22.71, -18.86, -23.29, -13.93, -24.16, -25.17, -24.88, -21.06, -18.08, 0.000, 0.000, 0.000, 11:22:56.901
92, 0.00, -26.35, -19.29, -22.98, -24.43, -15.60, -17.77, -22.71, -18.75, -23.31, -13.90, -23.89, -25.57, -24.83, -21.32, -18.06, 0.000, 0.000, 0.000, 11:22:56.901
93, 0.00, -26.38, -19.18, -22.80, -24.48, -15.53, -17.93, -22.64, -18.75, -23.31, -13.90, -23.89, -25.57, -24.83, -21.32, -18.06, 0.000, 0.000, 0.000, 11:22:56.901
94, 0.00, -26.38, -19.18, -22.80, -24.48, -15.53, -17.93, -22.64, -18.98, -23.54, -13.88, -23.98, -25.26, -24.77, -21.39, -18.19, 0.000, 0.000, 0.000, 11:22:56.902
95, 0.00, -26.17, -19.27, -22.78, -24.34, -15.45, -17.75, -22.69, -18.98, -23.54, -13.88, -23.98, -25.26, -24.77, -21.39, -18.19, 0.190, 0.826, 0.532, 11:22:56.903
96, 0.00, -26.17, -19.27, -22.78, -24.34, -15.45, -17.75, -22.69, -18.98, -23.51, -13.88, -23.80, -25.26, -24.77, -21.12, -18.02, 0.000, 0.000, 0.000, 11:22:56.911
97, 0.00, -26.22, -19.20, -22.62, -24.27, -15.51, -17.97, -22.84, -18.98, -23.51, -13.88, -23.80, -25.26, -24.77, -21.12, -18.02, 0.000, 0.000, 0.000, 11:22:56.911
98, 0.00, -26.22, -19.20, -22.62, -24.27, -15.51, -17.97, -22.84, -19.02, -23.69, -13.88, -23.96, -25.19, -24.79, -21.28, -18.02, 0.000, 0.000, 0.000, 11:22:56.911
99, 0.00, -26.26, -19.09, -22.84, -24.34, -15.29, -17.81, -22.78, -19.02, -23.69, -13.88, -23.96, -25.19, -24.79, -21.28, -18.02, 0.000, 0.000, 0.000, 11:22:56.911
100, 0.00, -26.26, -19.09, -22.84, -24.34, -15.29, -17.81, -22.78, -19.18, -23.09, -13.93, -23.78, -25.50, -24.90, -21.10, -17.95, 0.000, 0.000, 0.000, 11:22:56.913
101, 0.00, -26.31, -19.29, -22.78, -24.30, -15.53, -17.66, -22.58, -19.18, -23.09, -13.93, -23.78, -25.50, -24.90, -21.10, -17.95, 0.000, 0.000, 0.000, 11:22:56.914
102, 0.00, -26.31, -19.29, -22.78, -24.30, -15.53, -17.66, -22.58, -19.11, -23.07, -13.93, -23.89, -25.32, -24.68, -20.99, -18.10, 0.000, 0.000, 0.000, 11:22:56.914
103, 0.00, -26.26, -19.24, -22.62, -24.56, -15.42, -17.88, -22.82, -19.11, -23.07, -13.93, -23.89, -25.32, -24.68, -20.99, -18.10, 0.000, 0.000, 0.000, 11:22:56.914
104, 0.00, -26.26, -19.24, -22.62, -24.56, -15.42, -17.88, -22.82, -19.07, -23.29, -13.84, -24.01, -25.12, -25.06, -21.14, -17.88, 0.000, 0.000, 0.000, 11:22:56.915
105, 0.00, -26.20, -19.04, -22.55, -24.65, -15.29, -17.86, -22.87, -19.07, -23.29, -13.84, -24.01, -25.12, -25.06, -21.14, -17.88, 0.174, 0.804, 0.532, 11:22:56.915
106, 0.00, -26.20, -19.04, -22.55, -24.65, -15.29, -17.86, -22.87, -18.80, -23.51, -14.06, -24.07, -25.41, -24.77, -21.03, -18.04, 0.000, 0.000, 0.000, 11:22:56.915
107, 0.00, -26.44, -19.24, -22.80, -24.30, -15.42, -17.81, -22.89, -18.80, -23.51, -14.06, -24.07, -25.41, -24.77, -21.03, -18.04, 0.000, 0.000, 0.000, 11:22:56.915
108, 0.00, -26.44, -19.24, -22.80, -24.30, -15.42, -17.81, -22.89, -18.98, -23.56, -13.97, -23.94, -25.30, -24.79, -21.37, -17.99, 0.000, 0.000, 0.000, 11:22:56.916
109, 0.00, -26.35, -19.09, -22.73, -24.36, -15.58, -17.70, -22.75, -18.98, -23.56, -13.97, -23.94, -25.30, -24.79, -21.37, -17.99, 0.000, 0.000, 0.000, 11:22:56.916
110, 0.00, -26.35, -19.09, -22.73, -24.36, -15.58, -17.70, -22.75, -18.86, -23.25, -13.99, -23.87, -25.39, -24.70, -21.21, -18.15, 0.000, 0.000, 0.000, 11:22:56.928
111, 0.00, -26.33, -19.11, -22.82, -24.36, -15.56, -17.77, -22.73, -18.86, -23.25, -13.99, -23.87, -25.39, -24.70, -21.21, -18.15, 0.000, 0.000, 0.000, 11:22:56.929
112, 0.00, -26.33, -19.11, -22.82, -24.36, -15.56, -17.77, -22.73, -18.62, -23.34, -13.90, -23.89, -25.08, -24.68, -21.03, -18.13, 0.000, 0.000, 0.000, 11:22:56.929
113, 0.00, -26.24, -19.31, -22.60, -24.50, -15.53, -17.90, -22.66, -18.62, -23.34, -13.90, -23.89, -25.08, -24.68, -21.03, -18.13, 0.000, 0.000, 0.000, 11:22:56.929
114, 0.00, -26.24, -19.31, -22.60, -24.50, -15.53, -17.90, -22.66, -18.84, -23.47, -13.95, -23.96, -25.30, -24.74, -21.19, -17.95, 0.000, 0.000, 0.000, 11:22:56.929
115, 0.00, -26.31, -19.18, -22.87, -24.41, -15.31, -17.97, -22.66, -18.84, -23.47, -13.95, -23.96, -25.30, -24.74, -21.19, -17.95, 0.154, 0.784, 0.526, 11:22:56.930
116, 0.00, -26.31, -19.18, -22.87, -24.41, -15.31, -17.97, -22.66, -18.80, -23.60, -13.99, -24.21, -25.37, -24.88, -21.06, -18.06, 0.000, 0.000, 0.000, 11:22:56.930
117, 0.00, -26.15, -19.29, -22.73, -24.43, -15.53, -17.95, -22.53, -18.80, -23.60, -13.99, -24.21, -25.37, -24.88, -21.06, -18.06, 0.000, 0.000, 0.000, 11:22:56.930
118, 0.00, -26.15, -19.29, -22.73, -24.43, -15.53, -17.95, -22.53, -18.86, -23.09, -13.88, -23.94, -25.41, -24.77, -21.19, -18.08, 0.000, 0.000, 0.000, 11:22:56.934
119, 0.00, -26.40, -19.16, -22.66, -24.48, -15.47, -17.93, -22.69, -18.86, -23.09, -13.88, -23.94, -25.41, -24.77, -21.19, -18.08, 0.000, 0.000, 0.000, 11:22:56.934
120, 0.00, -26.40, -19.16, -22.66, -24.48, -15.47, -17.93, -22.69, -18.71, -23.29, -13.93, -23.78, -25.48, -24.97, -21.12, -18.08, 0.000, 0.000, 0.000, 11:22:56.934
121, 0.00, -26.38, -19.13, -22.60, -24.54, -15.42, -18.02, -22.69, -18.71, -23.29, -13.93, -23.78, -25.48, -24.97, -21.12, -18.08, 0.000, 0.000, 0.000, 11:22:56.934
122, 0.00, -26.38, -19.13, -22.60, -24.54, -15.42, -18.02, -22.69, -18.69, -23.29, -13.95, -24.07, -25.32, -24.65, -21.12, -17.99, 0.000, 0.000, 0.000, 11:22:56.935
123, 0.00, -26.17, -19.20, -22.78, -24.36, -15.56, -18.10, -22.69, -18.69, -23.29, -13.95, -24.07, -25.32, -24.65, -21.12, -17.99, 0.000, 0.000, 0.000, 11:22:56.935
124, 0.00, -26.17, -19.20, -22.78, -24.36, -15.56, -18.10, -22.69, -18.55, -23.38, -14.04, -23.89, -25.12, -24.59, -21.17, -17.90, 0.000, 0.000, 0.000, 11:22:56.935
125, 0.00, -26.20, -19.13, -22.87, -24.52, -15.56, -18.08, -22.69, -18.55, -23.38, -14.04, -23.89, -25.12, -24.59, -21.17, -17.90, 0.136, 0.800, 0.526, 11:22:56.935
126, 0.00, -26.20, -19.13, -22.87, -24.52, -15.56, -18.08, -22.69, -19.04, -23.29, -13.99, -24.03, -25.12, -24.45, -21.17, -17.93, 0.000, 0.000, 0.000, 11:22:56.936
127, 0.00, -26.13, -19.40, -22.78, -24.36, -15.53, -18.06, -22.53, -19.04, -23.29, -13.99, -24.03, -25.12, -24.45, -21.17, -17.93, 0.000, 0.000, 0.000, 11:22:56.943
128, 0.00, -26.13, -19.40, -22.78, -24.36, -15.53, -18.06, -22.53, -18.93, -23.29, -13.95, -24.01, -25.17, -24.83, -21.06, -18.04, 0.000, 0.000, 0.000, 11:22:56.945
129, 0.00, -26.42, -19.33, -22.84, -24.41, -15.60, -17.81, -22.71, -18.93, -23.29, -13.95, -24.01, -25.17, -24.83, -21.06, -18.04, 0.000, 0.000, 0.000, 11:22:56.945
130, 0.00, -26.42, -19.33, -22.84, -24.41, -15.60, -17.81, -22.71, -18.86, -23.40, -13.90, -23.96, -25.28, -24.88, -21.19, -18.37, 0.000, 0.000, 0.000, 11:22:56.946
131, 0.00, -26.31, -19.31, -22.82, -24.48, -15.56, -17.84, -22.84, -18.86, -23.40, -13.90, -23.96, -25.28, -24.88, -21.19, -18.37, 0.000, 0.000, 0.000, 11:22:56.946
132, 0.00, -26.31, -19.31, -22.82, -24.48, -15.56, -17.84, -22.84, -18.73, -23.38, -13.95, -23.89, -25.37, -24.81, -21.01, -18.22, 0.000, 0.000, 0.000, 11:22:56.946
133, 0.00, -26.20, -19.13, -22.51, -24.48, -15.20, -17.77, -22.71, -18.73, -23.38, -13.95, -23.89, -25.37, -24.81, -21.01, -18.22, 0.000, 0.000, 0.000, 11:22:56.950
134, 0.00, -26.20, -19.13, -22.51, -24.48, -15.20, -17.77, -22.71, -18.82, -23.42, -14.06, -23.65, -25.30, -24.74, -21.12, -17.95, 0.120, 0.828, 0.516, 11:22:56.950
135, 0.00, -26.20, -19.29, -22.58, -24.34, -15.45, -18.02, -22.62, -18.82, -23.42, -14.06, -23.65, -25.30, -24.74, -21.12, -17.95, 0.000, 0.000, 0.000, 11:22:56.951
136, 0.00, -26.20, -19.29, -22.58, -24.34, -15.45, -18.02, -22.62, -18.89, -23.45, -14.06, -23.92, -25.35, -24.92, -21.14, -17.97, 0.000, 0.000, 0.000, 11:22:56.951
137, 0.00, -26.26, -19.27, -22.91, -24.36, -15.47, -18.02, -22.73, -18.89, -23.45, -14.06, -23.92, -25.35, -24.92, -21.14, -17.97, 0.000, 0.000, 0.000, 11:22:56.951
138, 0.00, -26.26, -19.27, -22.91, -24.36, -15.47, -18.02, -22.73, -18.64, -23.38, -13.86, -23.85, -25.32, -24.81, -21.17, -18.04, 0.000, 0.000, 0.000, 11:22:56.951
139, 0.00, -26.29, -19.47, -22.82, -24.43, -15.65, -17.77, -22.60, -18.64, -23.38, -13.86, -23.85, -25.32, -24.81, -21.17, -18.04, 0.000, 0.000, 0.000, 11:22:56.951
140, 0.00, -26.29, -19.47, -22.82, -24.43, -15.65, -17.77, -22.60, -18.98, -23.34, -13.90, -23.92, -25.37, -24.74, -21.17, -18.04, 0.000, 0.000, 0.000, 11:22:56.952
141, 0.00, -26.15, -19.31, -22.60, -24.32, -15.60, -17.72, -22.82, -18.98, -23.34, -13.90, -23.92, -25.37, -24.74, -21.17, -18.04, 0.000, 0.000, 0.000, 11:22:56.952
142, 0.00, -26.15, -19.31, -22.60, -24.32, -15.60, -17.72, -22.82, -18.95, -23.36, -13.86, -23.96, -25.44, -24.68, -21.17, -18.06, 0.000, 0.000, 0.000, 11:22:56.952
143, 0.00, -26.31, -19.33, -22.55, -24.56, -15.58, -18.08, -22.91, -18.95, -23.36, -13.86, -23.96, -25.44, -24.68, -21.17, -18.06, 0.000, 0.000, 0.000, 11:22:56.952
144, 0.00, -26.31, -19.33, -22.55, -24.56, -15.58, -18.08, -22.91, -18.95, -23.63, -13.97, -23.76, -25.28, -24.59, -21.28, -18.24, 0.122, 0.858, 0.510, 11:22:56.953
145, 0.00, -26.17, -19.42, -22.84, -24.70, -15.40, -17.88, -22.69, -18.95, -23.63, -13.97, -23.76, -25.28, -24.59, -21.28, -18.24, 0.000, 0.000, 0.000, 11:22:56.953
146, 0.00, -26.17, -19.42, -22.84, -24.70, -15.40, -17.88, -22.69, -19.02, -23.49, -14.01, -23.96, -25.24, -24.65, -21.17, -18.08, 0.000, 0.000, 0.000, 11:22:56.965
147, 0.00, -26.11, -19.49, -22.84, -24.41, -15.67, -17.75, -22.62, -19.02, -23.49, -14.01, -23.96, -25.24, -24.65, -21.17, -18.08, 0.000, 0.000, 0.000, 11:22:56.965
148, 0.00, -26.11, -19.49, -22.84, -24.41, -15.67, -17.75, -22.62, -18.93, -23.56, -14.04, -24.14, -25.44, -24.92, -21.12, -18.15, 0.000, 0.000, 0.000, 11:22:56.965
149, 0.00, -26.24, -19.45, -22.80, -24.25, -15.56, -17.81, -22.62, -18.93, -23.56, -14.04, -24.14, -25.44, -24.92, -21.12, -18.15, 0.000, 0.000, 0.000, 11:22:56.965
150, 0.00, -26.24, -19.45, -22.80, -24.25, -15.56, -17.81, -22.62, -18.91, -23.38, -13.90, -23.92, -25.30, -24.92, -21.06, -18.13, 0.000, 0.000, 0.000, 11:22:56.972
151, 0.00, -26.22, -19.31, -22.89, -24.43, -15.58, -17.81, -22.75, -18.91, -23.38, -13.90, -23.92, -25.30, -24.92, -21.06, -18.13, 0.000, 0.000, 0.000, 11:22:56.976
152, 0.00, -26.22, -19.31, -22.89, -24.43, -15.58, -17.81, -22.75, -18.95, -23.42, -13.81, -24.01, -25.32, -24.72, -21.39, -18.08, 0.000, 0.000, 0.000, 11:22:56.976
153, 0.00, -26.22, -19.29, -22.91, -24.25, -15.27, -17.84, -22.55, -18.95, -23.42, -13.81, -24.01, -25.32, -24.72, -21.39, -18.08, 0.000, 0.000, 0.000, 11:22:56.977
154, 0.00, -26.22, -19.29, -22.91, -24.25, -15.27, -17.84, -22.55, -18.93, -23.58, -13.79, -23.80, -25.35, -24.81, -21.17, -18.02, 0.126, 0.866, 0.520, 11:22:56.977
155, 0.00, -26.31, -19.22, -22.71, -24.45, -15.45, -17.93, -22.78, -18.93, -23.58, -13.79, -23.80, -25.35, -24.81, -21.17, -18.02, 0.000, 0.000, 0.000, 11:22:56.977
156, 0.00, -26.31, -19.22, -22.71, -24.45, -15.45, -17.93, -22.78, -18.82, -23.54, -13.97, -23.89, -25.41, -24.68, -21.06, -18.10, 0.000, 0.000, 0.000, 11:22:56.977
157, 0.00, -26.15, -19.27, -22.93, -24.39, -15.36, -17.86, -22.75, -18.82, -23.54, -13.97, -23.89, -25.41, -24.68, -21.06, -18.10, 0.000, 0.000, 0.000, 11:22:56.979
158, 0.00, -26.15, -19.27, -22.93, -24.39, -15.36, -17.86, -22.75, -18.86, -23.42, -13.93, -24.01, -25.39, -24.61, -20.97, -18.08, 0.000, 0.000, 0.000, 11:22:56.980
159, 0.00, -26.31, -19.29, -22.87, -24.25, -15.47, -18.02, -22.84, -18.86, -23.42, -13.93, -24.01, -25.39, -24.61, -20.97, -18.08, 0.000, 0.000, 0.000, 11:22:56.981
160, 0.00, -26.31, -19.29, -22.87, -24.25, -15.47, -18.02, -22.84, -18.91, -23.45, -13.90, -24.05, -25.19, -24.92, -21.10, -18.13, 0.000, 0.000, 0.000, 11:22:56.982
161, 0.00, -26.38, -19.27, -22.96, -24.41, -15.45, -17.93, -22.91, -18.91, -23.45, -13.90, -24.05, -25.19, -24.92, -21.10, -18.13, 0.000, 0.000, 0.000, 11:22:56.982
163, 0.00, -26.42, -19.33, -22.84, -24.39, -15.58, -17.95, -22.60, -18.91, -23.45, -13.90, -24.05, -25.19, -24.92, -21.10, -18.13, 0.000, 0.000, 0.000, 11:22:56.999
164, 0.00, -26.42, -19.33, -22.84, -24.39, -15.58, -17.95, -22.60, -19.00, -23.42, -13.75, -23.96, -25.41, -24.92, -21.14, -17.99, 0.150, 0.852, 0.528, 11:22:56.999
165, 0.00, -26.35, -19.51, -22.98, -24.52, -15.38, -17.81, -22.71, -19.00, -23.42, -13.75, -23.96, -25.41, -24.92, -21.14, -17.99, 0.000, 0.000, 0.000, 11:22:56.999
166, 0.00, -26.35, -19.51, -22.98, -24.52, -15.38, -17.81, -22.71, -18.64, -23.45, -13.84, -24.01, -25.28, -24.68, -21.14, -18.15, 0.000, 0.000, 0.000, 11:22:57.000
167, 0.00, -26.33, -19.33, -22.80, -24.63, -15.62, -17.79, -22.75, -18.64, -23.45, -13.84, -24.01, -25.28, -24.68, -21.14, -18.15, 0.000, 0.000, 0.000, 11:22:57.000
168, 0.00, -26.33, -19.33, -22.80, -24.63, -15.62, -17.79, -22.75, -18.89, -23.60, -14.06, -23.92, -25.50, -24.68, -21.08, -18.02, 0.000, 0.000, 0.000, 11:22:57.001
169, 0.00, -26.26, -19.45, -22.78, -24.34, -15.69, -17.88, -22.64, -18.89, -23.60, -14.06, -23.92, -25.50, -24.68, -21.08, -18.02, 0.000, 0.000, 0.000, 11:22:57.002
170, 0.00, -26.26, -19.45, -22.78, -24.34, -15.69, -17.88, -22.64, -18.75, -23.36, -14.04, -23.85, -25.37, -24.70, -21.23, -18.22, 0.000, 0.000, 0.000, 11:22:57.002
171, 0.00, -26.31, -19.18, -22.62, -24.54, -15.62, -17.97, -22.62, -18.75, -23.36, -14.04, -23.85, -25.37, -24.70, -21.23, -18.22, 0.000, 0.000, 0.000, 11:22:57.002
172, 0.00, -26.31, -19.18, -22.62, -24.54, -15.62, -17.97, -22.62, -18.75, -23.58, -13.99, -23.89, -25.37, -24.81, -21.26, -17.88, 0.000, 0.000, 0.000, 11:22:57.003
173, 0.00, -26.26, -19.56, -22.96, -24.36, -15.24, -17.84, -22.75, -18.75, -23.58, -13.99, -23.89, -25.37, -24.81, -21.26, -17.88, 0.000, 0.000, 0.000, 11:22:57.005
174, 0.00, -26.26, -19.56, -22.96, -24.36, -15.24, -17.84, -22.75, -19.02, -23.49, -13.93, -23.80, -25.24, -24.70, -20.97, -18.17, 0.164, 0.838, 0.534, 11:22:57.005
175, 0.00, -26.02, -19.24, -22.73, -24.39, -15.53, -17.72, -22.75, -19.02, -23.49, -13.93, -23.80, -25.24, -24.70, -20.97, -18.17, 0.000, 0.000, 0.000, 11:22:57.009
176, 0.00, -26.02, -19.24, -22.73, -24.39, -15.53, -17.72, -22.75, -18.82, -23.36, -13.81, -23.89, -25.39, -24.65, -21.30, -18.19, 0.000, 0.000, 0.000, 11:22:57.013
177, 0.00, -26.15, -19.29, -22.82, -24.45, -15.56, -18.10, -22.91, -18.82, -23.36, -13.81, -23.89, -25.39, -24.65, -21.30, -18.19, 0.000, 0.000, 0.000, 11:22:57.017
178, 0.00, -26.15, -19.29, -22.82, -24.45, -15.56, -18.10, -22.91, -18.89, -23.31, -13.93, -24.05, -25.50, -24.72, -21.12, -18.04, 0.000, 0.000, 0.000, 11:22:57.020
207, 0.00, -26.33, -19.29, -22.75, -24.61, -15.40, -18.24, -22.91, -18.89, -23.31, -13.93, -24.05, -25.50, -24.72, -21.12, -18.04, 0.000, 0.000, 0.000, 11:22:57.029
210, 0.00, -26.33, -19.29, -22.75, -24.61, -15.40, -18.24, -22.91, -18.78, -23.45, -13.99, -23.87, -25.37, -24.63, -20.94, -17.99, 0.000, 0.000, 0.000, 11:22:57.030
211, 0.00, -26.26, -19.16, -22.60, -24.43, -15.67, -17.99, -22.84, -18.78, -23.45, -13.99, -23.87, -25.37, -24.63, -20.94, -17.99, 0.000, 0.000, 0.000, 11:22:57.030
212, 0.00, -26.26, -19.16, -22.60, -24.43, -15.67, -17.99, -22.84, -19.09, -23.56, -13.84, -24.03, -25.24, -24.81, -20.99, -18.15, 0.000, 0.000, 0.000, 11:22:57.031
213, 0.00, -26.42, -19.20, -22.98, -24.32, -15.53, -18.26, -22.64, -19.09, -23.56, -13.84, -24.03, -25.24, -24.81, -20.99, -18.15, 0.108, 0.794, 0.506, 11:22:57.031
214, 0.00, -26.42, -19.20, -22.98, -24.32, -15.53, -18.26, -22.64, -18.91, -23.65, -14.01, -24.03, -25.35, -24.83, -21.01, -18.13, 0.000, 0.000, 0.000, 11:22:57.031
215, 0.00, -26.51, -19.18, -22.84, -24.45, -15.58, -18.08, -22.58, -18.91, -23.65, -14.01, -24.03, -25.35, -24.83, -21.01, -18.13, 0.000, 0.000, 0.000, 11:22:57.036
216, 0.00, -26.51, -19.18, -22.84, -24.45, -15.58, -18.08, -22.58, -18.95, -23.31, -14.01, -23.98, -25.21, -24.68, -21.08, -18.08, 0.000, 0.000, 0.000, 11:22:57.038
217, 0.00, -26.35, -19.29, -22.64, -24.30, -15.36, -17.97, -22.93, -18.95, -23.31, -14.01, -23.98, -25.21, -24.68, -21.08, -18.08, 0.000, 0.000, 0.000, 11:22:57.042
218, 0.00, -26.35, -19.29, -22.64, -24.30, -15.36, -17.97, -22.93, -19.02, -23.49, -13.99, -23.98, -25.50, -24.72, -21.19, -18.06, 0.000, 0.000, 0.000, 11:22:57.046
219, 0.00, -26.26, -19.16, -22.66, -24.45, -15.38, -17.97, -22.64, -19.02, -23.49, -13.99, -23.98, -25.50, -24.72, -21.19, -18.06, 0.000, 0.000, 0.000, 11:22:57.048
220, 0.00, -26.26, -19.16, -22.66, -24.45, -15.38, -17.97, -22.64, -18.82, -23.42, -14.04, -24.03, -25.39, -24.68, -21.26, -18.13, 0.000, 0.000, 0.000, 11:22:57.050
221, 0.00, -26.22, -19.16, -22.84, -24.43, -15.40, -18.02, -22.84, -18.82, -23.42, -14.04, -24.03, -25.39, -24.68, -21.26, -18.13, 0.000, 0.000, 0.000, 11:22:57.057
222, 0.00, -26.22, -19.16, -22.84, -24.43, -15.40, -18.02, -22.84, -18.71, -23.38, -13.93, -23.94, -25.28, -24.72, -21.37, -18.06, 0.000, 0.000, 0.000, 11:22:57.057
223, 0.00, -26.20, -19.20, -22.84, -24.56, -15.51, -17.75, -22.80, -18.71, -23.38, -13.93, -23.94, -25.28, -24.72, -21.37, -18.06, 0.092, 0.818, 0.508, 11:22:57.063
224, 0.00, -26.20, -19.20, -22.84, -24.56, -15.51, -17.75, -22.80, -18.75, -23.54, -13.90, -23.92, -25.19, -24.88, -21.17, -17.95, 0.000, 0.000, 0.000, 11:22:57.063
225, 0.00, -26.51, -19.47, -22.71, -24.83, -15.53, -17.68, -22.66, -18.75, -23.54, -13.90, -23.92, -25.19, -24.88, -21.17, -17.95, 0.000, 0.000, 0.000, 11:22:57.070
226, 0.00, -26.51, -19.47, -22.71, -24.83, -15.53, -17.68, -22.66, -18.80, -23.45, -14.17, -23.94, -25.24, -24.88, -21.19, -17.86, 0.000, 0.000, 0.000, 11:22:57.075
227, 0.00, -26.31, -19.33, -22.82, -24.25, -15.71, -17.77, -22.69, -18.80, -23.45, -14.17, -23.94, -25.24, -24.88, -21.19, -17.86, 0.000, 0.000, 0.000, 11:22:57.076
228, 0.00, -26.31, -19.33, -22.82, -24.25, -15.71, -17.77, -22.69, -18.91, -23.56, -14.04, -23.85, -25.32, -24.90, -21.32, -18.37, 0.000, 0.000, 0.000, 11:22:57.082
229, 0.00, -26.35, -19.36, -22.84, -24.36, -15.65, -17.75, -22.89, -18.91, -23.56, -14.04, -23.85, -25.32, -24.90, -21.32, -18.37, 0.000, 0.000, 0.000, 11:22:57.087
230, 0.00, -26.35, -19.36, -22.84, -24.36, -15.65, -17.75, -22.89, -18.82, -23.45, -13.84, -23.85, -25.19, -24.88, -20.94, -17.86, 0.000, 0.000, 0.000, 11:22:57.088
231, 0.00, -26.24, -19.31, -22.80, -24.45, -15.27, -17.84, -22.64, -18.82, -23.45, -13.84, -23.85, -25.19, -24.88, -20.94, -17.86, 0.000, 0.000, 0.000, 11:22:57.092
232, 0.00, -26.24, -19.31, -22.80, -24.45, -15.27, -17.84, -22.64, -18.95, -23.49, -13.86, -24.07, -25.10, -24.70, -21.19, -17.88, 0.000, 0.000, 0.000, 11:22:57.104
233, 0.00, -26.06, -19.29, -22.96, -24.48, -15.71, -17.81, -22.89, -18.95, -23.49, -13.86, -24.07, -25.10, -24.70, -21.19, -17.88, 0.096, 0.850, 0.510, 11:22:57.104
234, 0.00, -26.06, -19.29, -22.96, -24.48, -15.71, -17.81, -22.89, -18.91, -23.56, -13.86, -23.92, -25.53, -24.88, -20.79, -18.10, 0.000, 0.000, 0.000, 11:22:57.104
235, 0.00, -26.26, -19.07, -22.98, -24.59, -15.33, -18.04, -22.71, -18.91, -23.56, -13.86, -23.92, -25.53, -24.88, -20.79, -18.10, 0.000, 0.000, 0.000, 11:22:57.109
236, 0.00, -26.26, -19.07, -22.98, -24.59, -15.33, -18.04, -22.71, -19.02, -23.54, -13.70, -23.98, -25.17, -24.86, -21.21, -17.99, 0.000, 0.000, 0.000, 11:22:57.115
237, 0.00, -26.24, -19.13, -22.89, -24.45, -15.40, -17.86, -22.84, -19.02, -23.54, -13.70, -23.98, -25.17, -24.86, -21.21, -17.99, 0.000, 0.000, 0.000, 11:22:57.116
238, 0.00, -26.24, -19.13, -22.89, -24.45, -15.40, -17.86, -22.84, -18.82, -23.38, -13.95, -24.03, -25.21, -24.86, -21.17, -17.97, 0.000, 0.000, 0.000, 11:22:57.121
239, 0.00, -26.08, -19.54, -22.69, -24.50, -15.62, -17.95, -22.82, -18.82, -23.38, -13.95, -24.03, -25.21, -24.86, -21.17, -17.97, 0.000, 0.000, 0.000, 11:22:57.126
240, 0.00, -26.08, -19.54, -22.69, -24.50, -15.62, -17.95, -22.82, -18.78, -23.58, -13.79, -23.98, -25.17, -24.88, -20.99, -17.93, 0.000, 0.000, 0.000, 11:22:57.127
241, 0.00, -26.29, -19.20, -22.73, -24.39, -15.53, -18.26, -22.66, -18.78, -23.58, -13.79, -23.98, -25.17, -24.88, -20.99, -17.93, 0.000, 0.000, 0.000, 11:22:57.132
242, 0.00, -26.29, -19.20, -22.73, -24.39, -15.53, -18.26, -22.66, -18.98, -23.47, -13.97, -23.94, -25.35, -24.70, -21.06, -18.04, 0.000, 0.000, 0.000, 11:22:57.138
243, 0.00, -26.38, -19.13, -22.64, -24.70, -15.38, -17.88, -22.66, -18.98, -23.47, -13.97, -23.94, -25.35, -24.70, -21.06, -18.04, 0.126, 0.856, 0.520, 11:22:57.139
244, 0.00, -26.38, -19.13, -22.64, -24.70, -15.38, -17.88, -22.66, -18.82, -23.51, -14.13, -23.92, -25.35, -24.77, -21.12, -18.19, 0.000, 0.000, 0.000, 11:22:57.149
245, 0.00, -26.13, -19.29, -22.87, -24.56, -15.51, -17.90, -22.78, -18.82, -23.51, -14.13, -23.92, -25.35, -24.77, -21.12, -18.19, 0.000, 0.000, 0.000, 11:22:57.150
246, 0.00, -26.13, -19.29, -22.87, -24.56, -15.51, -17.90, -22.78, -18.86, -23.51, -14.01, -24.03, -25.24, -24.59, -21.14, -17.90, 0.000, 0.000, 0.000, 11:22:57.156
247, 0.00, -26.08, -19.40, -22.60, -24.68, -15.47, -17.81, -22.87, -18.86, -23.51, -14.01, -24.03, -25.24, -24.59, -21.14, -17.90, 0.000, 0.000, 0.000, 11:22:57.156
248, 0.00, -26.08, -19.40, -22.60, -24.68, -15.47, -17.81, -22.87, -19.00, -23.27, -14.08, -24.10, -25.39, -24.83, -21.06, -17.99, 0.000, 0.000, 0.000, 11:22:57.161
249, 0.00, -26.22, -19.27, -22.80, -24.34, -15.53, -17.95, -22.69, -19.00, -23.27, -14.08, -24.10, -25.39, -24.83, -21.06, -17.99, 0.000, 0.000, 0.000, 11:22:57.167
250, 0.00, -26.22, -19.27, -22.80, -24.34, -15.53, -17.95, -22.69, -18.95, -23.40, -14.13, -24.07, -25.62, -24.88, -21.21, -17.95, 0.000, 0.000, 0.000, 11:22:57.167
251, 0.00, -26.24, -19.24, -22.91, -24.34, -15.51, -17.81, -22.58, -18.95, -23.40, -14.13, -24.07, -25.62, -24.88, -21.21, -17.95, 0.000, 0.000, 0.000, 11:22:57.173
252, 0.00, -26.24, -19.24, -22.91, -24.34, -15.51, -17.81, -22.58, -18.84, -23.34, -13.84, -23.96, -25.19, -24.79, -21.06, -18.06, 0.160, 0.848, 0.532, 11:22:57.179
253, 0.00, -26.44, -19.24, -22.73, -24.36, -15.53, -17.75, -22.62, -18.84, -23.34, -13.84, -23.96, -25.19, -24.79, -21.06, -18.06, 0.000, 0.000, 0.000, 11:22:57.180
254, 0.00, -26.44, -19.24, -22.73, -24.36, -15.53, -17.75, -22.62, -18.98, -23.29, -13.95, -24.10, -25.35, -24.74, -21.19, -18.06, 0.000, 0.000, 0.000, 11:22:57.187
255, 0.00, -26.44, -19.24, -22.89, -24.39, -15.42, -17.75, -22.73, -18.98, -23.29, -13.95, -24.10, -25.35, -24.74, -21.19, -18.06, 0.000, 0.000, 0.000, 11:22:57.188
0, 0.00, -26.44, -19.24, -22.89, -24.39, -15.42, -17.75, -22.73, -18.84, -23.54, -14.04, -23.89, -25.37, -24.70, -20.97, -17.88, 0.000, 0.000, 0.000, 11:22:57.193
1, 0.00, -26.26, -19.40, -22.84, -24.48, -15.62, -18.10, -22.73, -18.84, -23.54, -14.04, -23.89, -25.37, -24.70, -20.97, -17.88, 0.000, 0.000, 0.000, 11:22:57.200
2, 0.00, -26.26, -19.40, -22.84, -24.48, -15.62, -18.10, -22.73, -18.84, -23.60, -13.93, -24.05, -25.03, -24.72, -20.92, -17.93, 0.000, 0.000, 0.000, 11:22:57.200
3, 0.00, -26.20, -19.27, -22.87, -24.41, -15.58, -17.81, -22.60, -18.84, -23.60, -13.93, -24.05, -25.03, -24.72, -20.92, -17.93, 0.000, 0.000, 0.000, 11:22:57.207
4, 0.00, -26.20, -19.27, -22.87, -24.41, -15.58, -17.81, -22.60, -18.78, -23.54, -13.75, -23.83, -25.19, -24.81, -21.01, -18.13, 0.000, 0.000, 0.000, 11:22:57.207
5, 0.00, -26.22, -19.27, -22.91, -24.63, -15.74, -17.70, -22.78, -18.78, -23.54, -13.75, -23.83, -25.19, -24.81, -21.01, -18.13, 0.000, 0.000, 0.000, 11:22:57.214
6, 0.00, -26.22, -19.27, -22.91, -24.63, -15.74, -17.70, -22.78, -18.80, -23.40, -13.99, -24.16, -25.28, -24.74, -21.26, -17.90, 0.178, 0.838, 0.534, 11:22:57.221
7, 0.00, -26.13, -19.27, -23.02, -24.50, -15.42, -17.99, -22.84, -18.80, -23.40, -13.99, -24.16, -25.28, -24.74, -21.26, -17.90, 0.000, 0.000, 0.000, 11:22:57.221
8, 0.00, -26.13, -19.27, -23.02, -24.50, -15.42, -17.99, -22.84, -18.89, -23.29, -13.97, -23.89, -25.32, -24.77, -21.21, -18.13, 0.000, 0.000, 0.000, 11:22:57.227
9, 0.00, -26.22, -19.22, -22.75, -24.63, -15.47, -17.75, -22.91, -18.89, -23.29, -13.97, -23.89, -25.32, -24.77, -21.21, -18.13, 0.000, 0.000, 0.000, 11:22:57.227
10, 0.00, -26.22, -19.22, -22.75, -24.63, -15.47, -17.75, -22.91, -18.91, -23.38, -13.88, -23.80, -25.44, -24.86, -21.21, -18.19, 0.000, 0.000, 0.000, 11:22:57.234
11, 0.00, -26.20, -19.29, -22.64, -24.32, -15.69, -17.77, -22.64, -18.91, -23.38, -13.88, -23.80, -25.44, -24.86, -21.21, -18.19, 0.000, 0.000, 0.000, 11:22:57.241
12, 0.00, -26.20, -19.29, -22.64, -24.32, -15.69, -17.77, -22.64, -18.84, -23.45, -13.88, -23.96, -25.62, -24.63, -21.26, -18.02, 0.000, 0.000, 0.000, 11:22:57.241
13, 0.00, -26.08, -19.11, -22.89, -24.54, -15.67, -17.75, -22.78, -18.84, -23.45, -13.88, -23.96, -25.62, -24.63, -21.26, -18.02, 0.000, 0.000, 0.000, 11:22:57.247
14, 0.00, -26.08, -19.11, -22.89, -24.54, -15.67, -17.75, -22.78, -18.89, -23.25, -14.01, -24.14, -25.30, -24.68, -21.12, -18.15, 0.000, 0.000, 0.000, 11:22:57.247
15, 0.00, -26.04, -19.11, -22.89, -24.52, -15.38, -17.90, -22.75, -18.89, -23.25, -14.01, -24.14, -25.30, -24.68, -21.12, -18.15, 0.000, 0.000, 0.000, 11:22:57.254
16, 0.00, -26.04, -19.11, -22.89, -24.52, -15.38, -17.90, -22.75, -18.78, -23.58, -13.88, -24.10, -25.30, -24.70, -21.03, -18.13, 0.172, 0.836, 0.536, 11:22:57.254
17, 0.00, -26.20, -19.31, -22.71, -24.41, -15.24, -17.81, -22.69, -18.78, -23.58, -13.88, -24.10, -25.30, -24.70, -21.03, -18.13, 0.000, 0.000, 0.000, 11:22:57.264
18, 0.00, -26.20, -19.31, -22.71, -24.41, -15.24, -17.81, -22.69, -18.69, -23.36, -13.77, -23.96, -25.32, -24.83, -21.06, -18.19, 0.000, 0.000, 0.000, 11:22:57.264
19, 0.00, -26.24, -19.27, -22.84, -24.32, -15.58, -17.61, -22.75, -18.69, -23.36, -13.77, -23.96, -25.32, -24.83, -21.06, -18.19, 0.000, 0.000, 0.000, 11:22:57.270
20, 0.00, -26.24, -19.27, -22.84, -24.32, -15.58, -17.61, -22.75, -18.75, -23.47, -13.86, -24.10, -25.37, -24.81, -21.10, -18.08, 0.000, 0.000, 0.000, 11:22:57.277
21, 0.00, -26.44, -19.18, -22.80, -24.43, -15.45, -17.99, -22.62, -18.75, -23.47, -13.86, -24.10, -25.37, -24.81, -21.10, -18.08, 0.000, 0.000, 0.000, 11:22:57.277
22, 0.00, -26.44, -19.18, -22.80, -24.43, -15.45, -17.99, -22.62, -18.86, -23.27, -14.06, -24.12, -25.30, -24.86, -21.03, -18.22, 0.000, 0.000, 0.000, 11:22:57.286
23, 0.00, -26.29, -19.11, -22.75, -24.50, -15.60, -17.99, -22.62, -18.86, -23.27, -14.06, -24.12, -25.30, -24.86, -21.03, -18.22, 0.000, 0.000, 0.000, 11:22:57.286
24, 0.00, -26.29, -19.11, -22.75, -24.50, -15.60, -17.99, -22.62, -19.00, -23.25, -13.86, -23.80, -25.24, -24.77, -21.19, -17.97, 0.000, 0.000, 0.000, 11:22:57.287
25, 0.00, -26.26, -19.18, -22.73, -24.41, -15.65, -17.90, -22.87, -19.00, -23.25, -13.86, -23.80, -25.24, -24.77, -21.19, -17.97, 0.000, 0.000, 0.000, 11:22:57.293
26, 0.00, -26.26, -19.18, -22.73, -24.41, -15.65, -17.90, -22.87, -18.98, -23.31, -13.61, -23.98, -25.39, -24.63, -21.08, -17.86, 0.158, 0.830, 0.528, 11:22:57.299
27, 0.00, -26.31, -19.33, -22.58, -24.34, -15.31, -17.81, -22.87, -18.98, -23.31, -13.61, -23.98, -25.39, -24.63, -21.08, -17.86, 0.000, 0.000, 0.000, 11:22:57.299
28, 0.00, -26.31, -19.33, -22.58, -24.34, -15.31, -17.81, -22.87, -19.02, -23.54, -13.93, -24.01, -25.26, -24.92, -21.19, -18.02, 0.000, 0.000, 0.000, 11:22:57.305
29, 0.00, -26.31, -19.20, -22.93, -24.27, -15.69, -17.88, -22.78, -19.02, -23.54, -13.93, -24.01, -25.26, -24.92, -21.19, -18.02, 0.000, 0.000, 0.000, 11:22:57.310
30, 0.00, -26.31, -19.20, -22.93, -24.27, -15.69, -17.88, -22.78, -18.89, -23.38, -13.88, -24.07, -25.59, -24.88, -21.21, -17.93, 0.000, 0.000, 0.000, 11:22:57.310
31, 0.00, -26.44, -19.22, -22.89, -24.34, -15.80, -18.04, -22.75, -18.89, -23.38, -13.88, -24.07, -25.59, -24.88, -21.21, -17.93, 0.000, 0.000, 0.000, 11:22:57.316
32, 0.00, -26.44, -19.22, -22.89, -24.34, -15.80, -18.04, -22.75, -18.78, -23.20, -14.08, -24.14, -25.41, -24.68, -21.08, -17.99, 0.000, 0.000, 0.000, 11:22:57.322
33, 0.00, -26.46, -19.22, -23.00, -24.45, -15.69, -17.84, -22.78, -18.78, -23.20, -14.08, -24.14, -25.41, -24.68, -21.08, -17.99, 0.000, 0.000, 0.000, 11:22:57.327
34, 0.00, -26.46, -19.22, -23.00, -24.45, -15.69, -17.84, -22.78, -18.86, -23.56, -13.81, -23.94, -25.64, -24.94, -21.14, -18.13, 0.000, 0.000, 0.000, 11:22:57.327
35, 0.00, -26.17, -19.29, -22.82, -24.52, -15.45, -18.13, -22.71, -18.86, -23.56, -13.81, -23.94, -25.64, -24.94, -21.14, -18.13, 0.000, 0.000, 0.000, 11:22:57.332
36, 0.00, -26.17, -19.29, -22.82, -24.52, -15.45, -18.13, -22.71, -18.86, -23.27, -13.75, -24.01, -25.37, -24.99, -20.99, -18.15, 0.138, 0.792, 0.532, 11:22:57.337
37, 0.00, -26.24, -19.27, -22.78, -24.52, -15.49, -17.90, -22.44, -18.86, -23.27, -13.75, -24.01, -25.37, -24.99, -20.99, -18.15, 0.000, 0.000, 0.000, 11:22:57.342
38, 0.00, -26.24, -19.27, -22.78, -24.52, -15.49, -17.90, -22.44, -18.93, -23.40, -13.86, -24.01, -25.50, -24.81, -21.03, -17.95, 0.000, 0.000, 0.000, 11:22:57.342
39, 0.00, -26.20, -19.13, -22.98, -24.54, -15.56, -17.97, -22.96, -18.93, -23.40, -13.86, -24.01, -25.50, -24.81, -21.03, -17.95, 0.000, 0.000, 0.000, 11:22:57.348
40, 0.00, -26.20, -19.13, -22.98, -24.54, -15.56, -17.97, -22.96, -19.20, -23.25, -13.59, -24.03, -25.41, -24.59, -21.06, -18.02, 0.000, 0.000, 0.000, 11:22:57.354
41, 0.00, -26.29, -19.16, -22.82, -24.52, -15.45, -17.90, -22.64, -19.20, -23.25, -13.59, -24.03, -25.41, -24.59, -21.06, -18.02, 0.000, 0.000, 0.000, 11:22:57.359
42, 0.00, -26.29, -19.16, -22.82, -24.52, -15.45, -17.90, -22.64, -19.00, -23.25, -13.90, -24.01, -25.41, -24.65, -21.17, -18.17, 0.000, 0.000, 0.000, 11:22:57.360
43, 0.00, -26.38, -19.54, -22.75, -24.41, -15.29, -17.81, -22.51, -19.00, -23.25, -13.90, -24.01, -25.41, -24.65, -21.17, -18.17, 0.000, 0.000, 0.000, 11:22:57.367
44, 0.00, -26.38, -19.54, -22.75, -24.41, -15.29, -17.81, -22.51, -18.91, -23.60, -13.88, -23.96, -25.41, -24.77, -21.21, -17.79, 0.000, 0.000, 0.000, 11:22:57.368
45, 0.00, -26.20, -19.36, -22.80, -24.25, -15.38, -17.84, -22.60, -18.91, -23.60, -13.88, -23.96, -25.41, -24.77, -21.21, -17.79, 0.000, 0.000, 0.000, 11:22:57.373
46, 0.00, -26.20, -19.36, -22.80, -24.25, -15.38, -17.84, -22.60, -18.60, -23.45, -13.84, -23.92, -25.46, -24.50, -21.30, -18.15, 0.120, 0.772, 0.518, 11:22:57.378
47, 0.00, -26.31, -19.13, -22.82, -24.41, -15.45, -17.81, -22.64, -18.60, -23.45, -13.84, -23.92, -25.46, -24.50, -21.30, -18.15, 0.000, 0.000, 0.000, 11:22:57.385
48, 0.00, -26.31, -19.13, -22.82, -24.41, -15.45, -17.81, -22.64, -18.95, -23.45, -13.79, -23.98, -25.30, -24.72, -21.14, -17.97, 0.000, 0.000, 0.000, 11:22:57.385
49, 0.00, -26.06, -19.09, -22.93, -24.25, -15.62, -17.84, -22.71, -18.95, -23.45, -13.79, -23.98, -25.30, -24.72, -21.14, -17.97, 0.000, 0.000, 0.000, 11:22:57.391
50, 0.00, -26.06, -19.09, -22.93, -24.25, -15.62, -17.84, -22.71, -18.89, -23.45, -13.75, -23.89, -25.48, -24.79, -21.01, -18.15, 0.000, 0.000, 0.000, 11:22:57.391
51, 0.00, -26.06, -19.20, -22.93, -24.39, -15.49, -18.06, -22.80, -18.89, -23.45, -13.75, -23.89, -25.48, -24.79, -21.01, -18.15, 0.000, 0.000, 0.000, 11:22:57.398
52, 0.00, -26.06, -19.20, -22.93, -24.39, -15.49, -18.06, -22.80, -18.84, -23.47, -14.06, -24.01, -25.28, -24.92, -21.32, -17.88, 0.000, 0.000, 0.000, 11:22:57.398
53, 0.00, -26.22, -19.00, -22.64, -24.54, -15.65, -17.75, -22.73, -18.84, -23.47, -14.06, -24.01, -25.28, -24.92, -21.32, -17.88, 0.000, 0.000, 0.000, 11:22:57.404
54, 0.00, -26.22, -19.00, -22.64, -24.54, -15.65, -17.75, -22.73, -18.80, -23.54, -13.97, -24.16, -25.28, -24.90, -21.32, -18.17, 0.000, 0.000, 0.000, 11:22:57.409
55, 0.00, -26.33, -19.27, -22.89, -24.39, -15.33, -17.88, -22.69, -18.80, -23.54, -13.97, -24.16, -25.28, -24.90, -21.32, -18.17, 0.000, 0.000, 0.000, 11:22:57.414
56, 0.00, -26.33, -19.27, -22.89, -24.39, -15.33, -17.88, -22.69, -18.93, -23.51, -13.90, -23.92, -25.24, -24.77, -21.28, -18.15, 0.100, 0.804, 0.518, 11:22:57.414
57, 0.00, -26.20, -19.33, -22.80, -24.45, -15.51, -17.93, -22.69, -18.93, -23.51, -13.90, -23.92, -25.24, -24.77, -21.28, -18.15, 0.000, 0.000, 0.000, 11:22:57.420
58, 0.00, -26.20, -19.33, -22.80, -24.45, -15.51, -17.93, -22.69, -18.93, -23.36, -13.84, -23.76, -25.35, -24.79, -21.03, -18.04, 0.000, 0.000, 0.000, 11:22:57.426
59, 0.00, -26.33, -19.33, -22.80, -24.56, -15.53, -17.84, -22.78, -18.93, -23.36, -13.84, -23.76, -25.35, -24.79, -21.03, -18.04, 0.000, 0.000, 0.000, 11:22:57.427
60, 0.00, -26.33, -19.33, -22.80, -24.56, -15.53, -17.84, -22.78, -18.98, -23.42, -14.04, -24.05, -25.35, -24.65, -21.23, -17.90, 0.000, 0.000, 0.000, 11:22:57.433
61, 0.00, -26.24, -19.24, -22.71, -24.48, -15.45, -17.66, -22.71, -18.98, -23.42, -14.04, -24.05, -25.35, -24.65, -21.23, -17.90, 0.000, 0.000, 0.000, 11:22:57.438
62, 0.00, -26.24, -19.24, -22.71, -24.48, -15.45, -17.66, -22.71, -18.73, -23.27, -13.84, -23.78, -25.30, -24.81, -21.17, -17.84, 0.000, 0.000, 0.000, 11:22:57.443
63, 0.00, -26.31, -19.42, -22.64, -24.39, -15.56, -17.72, -22.75, -18.73, -23.27, -13.84, -23.78, -25.30, -24.81, -21.17, -17.84, 0.000, 0.000, 0.000, 11:22:57.444
64, 0.00, -26.31, -19.42, -22.64, -24.39, -15.56, -17.72, -22.75, -18.84, -23.36, -13.88, -23.74, -25.35, -24.70, -21.21, -18.17, 0.000, 0.000, 0.000, 11:22:57.449
65, 0.00, -26.20, -19.42, -22.78, -24.39, -15.69, -18.04, -22.55, -18.84, -23.36, -13.88, -23.74, -25.35, -24.70, -21.21, -18.17, 0.102, 0.836, 0.514, 11:22:57.451
66, 0.00, -26.20, -19.42, -22.78, -24.39, -15.69, -18.04, -22.55, -18.86, -23.34, -13.86, -24.14, -25.39, -24.77, -21.06, -18.22, 0.000, 0.000, 0.000, 11:22:57.456
67, 0.00, -26.15, -19.36, -22.84, -24.61, -15.62, -17.72, -22.66, -18.86, -23.34, -13.86, -24.14, -25.39, -24.77, -21.06, -18.22, 0.000, 0.000, 0.000, 11:22:57.463
68, 0.00, -26.15, -19.36, -22.84, -24.61, -15.62, -17.72, -22.66, -19.00, -23.51, -13.84, -23.98, -25.28, -24.52, -21.30, -18.08, 0.000, 0.000, 0.000, 11:22:57.463
69, 0.00, -26.24, -19.45, -22.87, -24.52, -15.58, -17.90, -22.69, -19.00, -23.51, -13.84, -23.98, -25.28, -24.52, -21.30, -18.08, 0.000, 0.000, 0.000, 11:22:57.468
70, 0.00, -26.24, -19.45, -22.87, -24.52, -15.58, -17.90, -22.69, -18.86, -23.49, -13.88, -23.96, -25.12, -24.81, -21.37, -18.04, 0.000, 0.000, 0.000, 11:22:57.473
71, 0.00, -26.35, -19.24, -22.89, -24.43, -15.51, -17.81, -22.78, -18.86, -23.49, -13.88, -23.96, -25.12, -24.81, -21.37, -18.04, 0.000, 0.000, 0.000, 11:22:57.474
72, 0.00, -26.35, -19.24, -22.89, -24.43, -15.51, -17.81, -22.78, -18.64, -23.58, -14.01, -23.89, -25.35, -24.61, -21.19, -17.97, 0.000, 0.000, 0.000, 11:22:57.479
73, 0.00, -26.46, -19.22, -22.98, -24.45, -15.53, -17.95, -22.62, -18.64, -23.58, -14.01, -23.89, -25.35, -24.61, -21.19, -17.97, 0.000, 0.000, 0.000, 11:22:57.489
74, 0.00, -26.46, -19.22, -22.98, -24.45, -15.53, -17.95, -22.62, -18.91, -23.69, -13.86, -24.07, -25.28, -24.81, -21.03, -18.19, 0.000, 0.000, 0.000, 11:22:57.489
75, 0.00, -26.33, -19.29, -22.78, -24.32, -15.65, -18.04, -22.93, -18.91, -23.69, -13.86, -24.07, -25.28, -24.81, -21.03, -18.19, 0.132, 0.856, 0.514, 11:22:57.495
76, 0.00, -26.33, -19.29, -22.78, -24.32, -15.65, -18.04, -22.93, -18.86, -23.56, -13.93, -23.85, -25.21, -24.83, -21.14, -17.97, 0.000, 0.000, 0.000, 11:22:57.495
77, 0.00, -26.26, -19.29, -22.73, -24.56, -15.71, -17.84, -22.82, -18.86, -23.56, -13.93, -23.85, -25.21, -24.83, -21.14, -17.97, 0.000, 0.000, 0.000, 11:22:57.500
78, 0.00, -26.26, -19.29, -22.73, -24.56, -15.71, -17.84, -22.82, -18.82, -23.45, -13.97, -23.65, -25.26, -24.88, -20.85, -17.95, 0.000, 0.000, 0.000, 11:22:57.506
79, 0.00, -26.20, -19.45, -22.87, -24.56, -15.51, -18.15, -22.98, -18.82, -23.45, -13.97, -23.65, -25.26, -24.88, -20.85, -17.95, 0.000, 0.000, 0.000, 11:22:57.506
80, 0.00, -26.20, -19.45, -22.87, -24.56, -15.51, -18.15, -22.98, -18.98, -23.51, -13.90, -23.76, -25.53, -24.65, -20.97, -18.10, 0.000, 0.000, 0.000, 11:22:57.512
81, 0.00, -26.35, -19.47, -22.82, -24.56, -15.40, -18.04, -22.60, -18.98, -23.51, -13.90, -23.76, -25.53, -24.65, -20.97, -18.10, 0.000, 0.000, 0.000, 11:22:57.518
82, 0.00, -26.35, -19.47, -22.82, -24.56, -15.40, -18.04, -22.60, -18.73, -23.49, -13.99, -23.80, -25.28, -24.74, -21.26, -18.10, 0.000, 0.000, 0.000, 11:22:57.523
83, 0.00, -26.46, -19.09, -22.60, -24.68, -15.58, -17.86, -22.66, -18.73, -23.49, -13.99, -23.80, -25.28, -24.74, -21.26, -18.10, 0.000, 0.000, 0.000, 11:22:57.523
84, 0.00, -26.46, -19.09, -22.60, -24.68, -15.58, -17.86, -22.66, -18.82, -23.54, -13.90, -24.01, -25.35, -24.74, -21.19, -18.04, 0.000, 0.000, 0.000, 11:22:57.529
85, 0.00, -26.40, -19.04, -22.66, -24.43, -15.69, -18.02, -22.55, -18.82, -23.54, -13.90, -24.01, -25.35, -24.74, -21.19, -18.04, 0.162, 0.850, 0.526, 11:22:57.535
86, 0.00, -26.40, -19.04, -22.66, -24.43, -15.69, -18.02, -22.55, -18.84, -23.49, -13.88, -23.96, -25.37, -24.74, -21.21, -18.02, 0.000, 0.000, 0.000, 11:22:57.535
87, 0.00, -26.20, -19.42, -22.66, -24.70, -15.42, -18.02, -22.89, -18.84, -23.49, -13.88, -23.96, -25.37, -24.74, -21.21, -18.02, 0.000, 0.000, 0.000, 11:22:57.541
88, 0.00, -26.20, -19.42, -22.66, -24.70, -15.42, -18.02, -22.89, -19.07, -23.42, -13.95, -23.76, -25.06, -24.63, -21.21, -17.86, 0.000, 0.000, 0.000, 11:22:57.546
89, 0.00, -26.20, -19.31, -22.71, -24.36, -15.45, -17.93, -23.07, -19.07, -23.42, -13.95, -23.76, -25.06, -24.63, -21.21, -17.86, 0.000, 0.000, 0.000, 11:22:57.552
90, 0.00, -26.20, -19.31, -22.71, -24.36, -15.45, -17.93, -23.07, -18.66, -23.51, -13.93, -23.96, -25.15, -24.94, -21.19, -18.22, 0.000, 0.000, 0.000, 11:22:57.552
91, 0.00, -26.29, -19.36, -22.66, -24.36, -15.76, -17.93, -22.53, -18.66, -23.51, -13.93, -23.96, -25.15, -24.94, -21.19, -18.22, 0.000, 0.000, 0.000, 11:22:57.558
92, 0.00, -26.29, -19.36, -22.66, -24.36, -15.76, -17.93, -22.53, -18.82, -23.31, -13.95, -23.83, -25.37, -24.79, -20.99, -17.99, 0.000, 0.000, 0.000, 11:22:57.558
93, 0.00, -26.29, -19.11, -22.73, -24.41, -15.53, -17.90, -22.58, -18.82, -23.31, -13.95, -23.83, -25.37, -24.79, -20.99, -17.99, 0.000, 0.000, 0.000, 11:22:57.564
94, 0.00, -26.29, -19.11, -22.73, -24.41, -15.53, -17.90, -22.58, -18.73, -23.56, -13.88, -23.87, -25.17, -24.83, -21.10, -17.99, 0.000, 0.000, 0.000, 11:22:57.570
95, 0.00, -26.22, -19.18, -22.91, -24.41, -15.38, -17.97, -22.66, -18.73, -23.56, -13.88, -23.87, -25.17, -24.83, -21.10, -17.99, 0.184, 0.826, 0.540, 11:22:57.572
96, 0.00, -26.22, -19.18, -22.91, -24.41, -15.38, -17.97, -22.66, -18.91, -23.31, -13.97, -23.78, -25.57, -24.77, -21.06, -18.24, 0.000, 0.000, 0.000, 11:22:57.578
97, 0.00, -26.11, -19.38, -22.96, -24.39, -15.56, -17.90, -22.82, -18.91, -23.31, -13.97, -23.78, -25.57, -24.77, -21.06, -18.24, 0.000, 0.000, 0.000, 11:22:57.579
98, 0.00, -26.11, -19.38, -22.96, -24.39, -15.56, -17.90, -22.82, -19.07, -23.31, -13.90, -23.94, -25.46, -24.63, -21.26, -18.31, 0.000, 0.000, 0.000, 11:22:57.585
99, 0.00, -26.29, -19.31, -22.75, -24.45, -15.42, -17.95, -22.71, -19.07, -23.31, -13.90, -23.94, -25.46, -24.63, -21.26, -18.31, 0.000, 0.000, 0.000, 11:22:57.591
100, 0.00, -26.29, -19.31, -22.75, -24.45, -15.42, -17.95, -22.71, -18.93, -23.47, -13.99, -23.96, -25.44, -24.70, -21.12, -18.35, 0.000, 0.000, 0.000, 11:22:57.591
101, 0.00, -26.42, -19.16, -22.71, -24.50, -15.33, -18.02, -22.75, -18.93, -23.47, -13.99, -23.96, -25.44, -24.70, -21.12, -18.35, 0.000, 0.000, 0.000, 11:22:57.597
102, 0.00, -26.42, -19.16, -22.71, -24.50, -15.33, -18.02, -22.75, -19.04, -23.31, -13.99, -23.94, -25.30, -24.68, -21.41, -17.97, 0.000, 0.000, 0.000, 11:22:57.602
103, 0.00, -26.24, -19.18, -22.82, -24.59, -15.45, -17.97, -22.60, -19.04, -23.31, -13.99, -23.94, -25.30, -24.68, -21.41, -17.97, 0.000, 0.000, 0.000, 11:22:57.603
104, 0.00, -26.24, -19.18, -22.82, -24.59, -15.45, -17.97, -22.60, -18.84, -23.49, -13.95, -23.94, -25.32, -25.06, -21.12, -18.06, 0.000, 0.000, 0.000, 11:22:57.609
105, 0.00, -26.42, -19.07, -22.66, -24.36, -15.51, -17.86, -22.80, -18.84, -23.49, -13.95, -23.94, -25.32, -25.06, -21.12, -18.06, 0.184, 0.834, 0.540, 11:22:57.609
106, 0.00, -26.42, -19.07, -22.66, -24.36, -15.51, -17.86, -22.80, -18.91, -23.60, -13.97, -23.94, -25.39, -24.56, -21.06, -18.24, 0.000, 0.000, 0.000, 11:22:57.615
107, 0.00, -26.13, -19.36, -22.80, -24.45, -15.40, -17.97, -22.73, -18.91, -23.60, -13.97, -23.94, -25.39, -24.56, -21.06, -18.24, 0.000, 0.000, 0.000, 11:22:57.622
108, 0.00, -26.13, -19.36, -22.80, -24.45, -15.40, -17.97, -22.73, -18.75, -23.38, -13.97, -23.92, -25.26, -24.61, -21.26, -18.08, 0.000, 0.000, 0.000, 11:22:57.622
109, 0.00, -26.15, -19.54, -22.62, -24.56, -15.38, -17.93, -22.53, -18.75, -23.38, -13.97, -23.92, -25.26, -24.61, -21.26, -18.08, 0.000, 0.000, 0.000, 11:22:57.628
110, 0.00, -26.15, -19.54, -22.62, -24.56, -15.38, -17.93, -22.53, -18.78, -23.49, -13.84, -23.78, -25.32, -24.74, -21.21, -18.08, 0.000, 0.000, 0.000, 11:22:57.635
111, 0.00, -26.40, -19.45, -22.60, -24.48, -15.51, -17.81, -22.82, -18.78, -23.49, -13.84, -23.78, -25.32, -24.74, -21.21, -18.08, 0.000, 0.000, 0.000, 11:22:57.635
112, 0.00, -26.40, -19.45, -22.60, -24.48, -15.51, -17.81, -22.82, -18.82, -23.56, -13.90, -24.03, -25.48, -24.65, -21.14, -17.95, 0.000, 0.000, 0.000, 11:22:57.641
113, 0.00, -26.11, -19.29, -22.89, -24.54, -15.53, -17.97, -22.89, -18.82, -23.56, -13.90, -24.03, -25.48, -24.65, -21.14, -17.95, 0.000, 0.000, 0.000, 11:22:57.649
114, 0.00, -26.11, -19.29, -22.89, -24.54, -15.53, -17.97, -22.89, -18.93, -23.45, -14.08, -23.89, -25.35, -24.61, -20.97, -18.13, 0.000, 0.000, 0.000, 11:22:57.651
115, 0.00, -26.33, -19.22, -23.00, -24.36, -15.60, -17.86, -22.62, -18.93, -23.45, -14.08, -23.89, -25.35, -24.61, -20.97, -18.13, 0.166, 0.828, 0.524, 11:22:57.651
116, 0.00, -26.33, -19.22, -23.00, -24.36, -15.60, -17.86, -22.62, -19.07, -23.49, -13.90, -23.98, -25.50, -24.65, -21.28, -17.84, 0.000, 0.000, 0.000, 11:22:57.657
117, 0.00, -26.42, -19.33, -22.71, -24.25, -15.56, -17.61, -22.58, -19.07, -23.49, -13.90, -23.98, -25.50, -24.65, -21.28, -17.84, 0.000, 0.000, 0.000, 11:22:57.663
118, 0.00, -26.42, -19.33, -22.71, -24.25, -15.56, -17.61, -22.58, -18.93, -23.38, -14.10, -23.98, -25.37, -24.72, -21.35, -17.86, 0.000, 0.000, 0.000, 11:22:57.664
119, 0.00, -26.31, -19.42, -22.84, -24.34, -15.67, -17.79, -22.78, -18.93, -23.38, -14.10, -23.98, -25.37, -24.72, -21.35, -17.86, 0.000, 0.000, 0.000, 11:22:57.670
120, 0.00, -26.31, -19.42, -22.84, -24.34, -15.67, -17.79, -22.78, -18.86, -23.49, -13.81, -24.10, -25.35, -24.72, -21.14, -18.15, 0.000, 0.000, 0.000, 11:22:57.670
121, 0.00, -26.08, -19.36, -22.84, -24.43, -15.58, -17.66, -22.55, -18.86, -23.49, -13.81, -24.10, -25.35, -24.72, -21.14, -18.15, 0.000, 0.000, 0.000, 11:22:57.676
122, 0.00, -26.08, -19.36, -22.84, -24.43, -15.58, -17.66, -22.55, -19.07, -23.78, -13.81, -23.80, -25.30, -24.68, -21.28, -18.24, 0.000, 0.000, 0.000, 11:22:57.683
123, 0.00, -26.20, -19.24, -22.84, -24.45, -15.42, -17.88, -22.69, -19.07, -23.78, -13.81, -23.80, -25.30, -24.68, -21.28, -18.24, 0.000, 0.000, 0.000, 11:22:57.683
124, 0.00, -26.20, -19.24, -22.84, -24.45, -15.42, -17.88, -22.69, -18.95, -23.47, -13.90, -23.89, -25.26, -24.77, -21.23, -17.95, 0.138, 0.806, 0.520, 11:22:57.689
125, 0.00, -26.11, -19.31, -22.89, -24.45, -15.80, -17.88, -22.75, -18.95, -23.47, -13.90, -23.89, -25.26, -24.77, -21.23, -17.95, 0.000, 0.000, 0.000, 11:22:57.689
126, 0.00, -26.11, -19.31, -22.89, -24.45, -15.80, -17.88, -22.75, -18.78, -23.25, -13.84, -24.03, -25.19, -24.56, -21.26, -18.22, 0.000, 0.000, 0.000, 11:22:57.695
127, 0.00, -26.24, -19.31, -22.82, -24.45, -15.49, -17.90, -22.73, -18.78, -23.25, -13.84, -24.03, -25.19, -24.56, -21.26, -18.22, 0.000, 0.000, 0.000, 11:22:57.700
128, 0.00, -26.24, -19.31, -22.82, -24.45, -15.49, -17.90, -22.73, -18.98, -23.40, -13.93, -24.05, -25.24, -24.81, -21.17, -18.08, 0.000, 0.000, 0.000, 11:22:57.705
129, 0.00, -26.38, -19.56, -22.84, -24.54, -15.29, -18.04, -22.58, -18.98, -23.40, -13.93, -24.05, -25.24, -24.81, -21.17, -18.08, 0.000, 0.000, 0.000, 11:22:57.711
130, 0.00, -26.38, -19.56, -22.84, -24.54, -15.29, -18.04, -22.58, -18.78, -23.51, -13.81, -23.98, -25.50, -24.70, -21.26, -17.99, 0.000, 0.000, 0.000, 11:22:57.711
131, 0.00, -26.26, -19.20, -22.84, -24.45, -15.49, -17.90, -22.53, -18.78, -23.51, -13.81, -23.98, -25.50, -24.70, -21.26, -17.99, 0.000, 0.000, 0.000, 11:22:57.717
132, 0.00, -26.26, -19.20, -22.84, -24.45, -15.49, -17.90, -22.53, -18.89, -23.56, -13.97, -23.98, -25.39, -24.83, -21.17, -18.02, 0.000, 0.000, 0.000, 11:22:57.717
133, 0.00, -26.38, -19.33, -22.91, -24.39, -15.47, -17.86, -22.51, -18.89, -23.56, -13.97, -23.98, -25.39, -24.83, -21.17, -18.02, 0.000, 0.000, 0.000, 11:22:57.723
134, 0.00, -26.38, -19.33, -22.91, -24.39, -15.47, -17.86, -22.51, -19.02, -23.25, -13.97, -23.92, -25.41, -24.97, -21.14, -18.04, 0.120, 0.786, 0.512, 11:22:57.728
135, 0.00, -26.55, -19.45, -22.89, -24.39, -15.65, -17.93, -22.66, -19.02, -23.25, -13.97, -23.92, -25.41, -24.97, -21.14, -18.04, 0.000, 0.000, 0.000, 11:22:57.733
136, 0.00, -26.55, -19.45, -22.89, -24.39, -15.65, -17.93, -22.66, -19.09, -23.58, -13.99, -24.05, -25.35, -24.70, -21.10, -18.02, 0.000, 0.000, 0.000, 11:22:57.738
137, 0.00, -26.13, -19.38, -22.82, -24.41, -15.53, -17.81, -22.78, -19.09, -23.58, -13.99, -24.05, -25.35, -24.70, -21.10, -18.02, 0.000, 0.000, 0.000, 11:22:57.738
138, 0.00, -26.13, -19.38, -22.82, -24.41, -15.53, -17.81, -22.78, -18.91, -23.47, -14.13, -24.03, -25.28, -24.52, -21.10, -18.08, 0.000, 0.000, 0.000, 11:22:57.744
139, 0.00, -26.46, -19.16, -22.78, -24.52, -15.51, -17.97, -22.51, -18.91, -23.47, -14.13, -24.03, -25.28, -24.52, -21.10, -18.08, 0.000, 0.000, 0.000, 11:22:57.749
140, 0.00, -26.46, -19.16, -22.78, -24.52, -15.51, -17.97, -22.51, -18.93, -23.38, -13.84, -24.05, -25.30, -24.79, -21.03, -17.81, 0.000, 0.000, 0.000, 11:22:57.749
141, 0.00, -26.20, -19.36, -22.64, -24.41, -15.29, -18.15, -22.71, -18.93, -23.38, -13.84, -24.05, -25.30, -24.79, -21.03, -17.81, 0.000, 0.000, 0.000, 11:22:57.755
142, 0.00, -26.20, -19.36, -22.64, -24.41, -15.29, -18.15, -22.71, -19.04, -23.47, -13.95, -23.98, -25.37, -24.83, -21.37, -17.79, 0.000, 0.000, 0.000, 11:22:57.761
143, 0.00, -26.29, -19.38, -22.60, -24.45, -15.45, -17.90, -22.66, -19.04, -23.47, -13.95, -23.98, -25.37, -24.83, -21.37, -17.79, 0.000, 0.000, 0.000, 11:22:57.767
144, 0.00, -26.29, -19.38, -22.60, -24.45, -15.45, -17.90, -22.66, -18.93, -23.27, -13.77, -23.94, -25.35, -24.68, -21.26, -17.90, 0.112, 0.806, 0.500, 11:22:57.768
145, 0.00, -26.40, -19.18, -22.78, -24.61, -15.51, -17.86, -22.73, -18.93, -23.27, -13.77, -23.94, -25.35, -24.68, -21.26, -17.90, 0.000, 0.000, 0.000, 11:22:57.773
146, 0.00, -26.40, -19.18, -22.78, -24.61, -15.51, -17.86, -22.73, -18.84, -23.47, -13.97, -23.78, -25.35, -24.61, -21.37, -17.88, 0.000, 0.000, 0.000, 11:22:57.773
147, 0.00, -26.33, -19.27, -23.00, -24.50, -15.47, -17.93, -22.55, -18.84, -23.47, -13.97, -23.78, -25.35, -24.61, -21.37, -17.88, 0.000, 0.000, 0.000, 11:22:57.779
148, 0.00, -26.33, -19.27, -23.00, -24.50, -15.47, -17.93, -22.55, -18.91, -23.25, -13.95, -23.76, -25.17, -24.94, -21.23, -17.99, 0.000, 0.000, 0.000, 11:22:57.784
149, 0.00, -26.31, -19.40, -22.98, -24.59, -15.20, -17.88, -22.73, -18.91, -23.25, -13.95, -23.76, -25.17, -24.94, -21.23, -17.99, 0.000, 0.000, 0.000, 11:22:57.789
150, 0.00, -26.31, -19.40, -22.98, -24.59, -15.20, -17.88, -22.73, -19.00, -23.51, -13.90, -23.74, -25.24, -24.92, -21.12, -17.88, 0.000, 0.000, 0.000, 11:22:57.789
151, 0.00, -26.13, -19.38, -22.93, -24.36, -15.51, -17.95, -22.71, -19.00, -23.51, -13.90, -23.74, -25.24, -24.92, -21.12, -17.88, 0.000, 0.000, 0.000, 11:22:57.795
152, 0.00, -26.13, -19.38, -22.93, -24.36, -15.51, -17.95, -22.71, -18.84, -23.56, -13.93, -24.05, -25.39, -24.61, -21.21, -18.22, 0.000, 0.000, 0.000, 11:22:57.801
153, 0.00, -26.29, -19.16, -22.71, -24.54, -15.58, -18.04, -22.62, -18.84, -23.56, -13.93, -24.05, -25.39, -24.61, -21.21, -18.22, 0.000, 0.000, 0.000, 11:22:57.801
154, 0.00, -26.29, -19.16, -22.71, -24.54, -15.58, -18.04, -22.62, -18.89, -23.63, -14.06, -23.89, -25.32, -24.86, -21.14, -18.08, 0.106, 0.844, 0.496, 11:22:57.807
155, 0.00, -26.40, -19.38, -22.87, -24.23, -15.38, -17.79, -22.66, -18.89, -23.63, -14.06, -23.89, -25.32, -24.86, -21.14, -18.08, 0.000, 0.000, 0.000, 11:22:57.812
156, 0.00, -26.40, -19.38, -22.87, -24.23, -15.38, -17.79, -22.66, -18.69, -23.36, -13.86, -23.83, -25.39, -24.79, -21.35, -18.24, 0.000, 0.000, 0.000, 11:22:57.817
157, 0.00, -26.35, -19.27, -22.60, -24.48, -15.33, -17.97, -22.73, -18.69, -23.36, -13.86, -23.83, -25.39, -24.79, -21.35, -18.24, 0.000, 0.000, 0.000, 11:22:57.817
158, 0.00, -26.35, -19.27, -22.60, -24.48, -15.33, -17.97, -22.73, -18.78, -23.40, -13.79, -23.96, -25.32, -25.03, -21.32, -18.10, 0.000, 0.000, 0.000, 11:22:57.824
159, 0.00, -26.29, -19.09, -22.80, -24.50, -15.40, -17.81, -22.75, -18.78, -23.40, -13.79, -23.96, -25.32, -25.03, -21.32, -18.10, 0.000, 0.000, 0.000, 11:22:57.831
160, 0.00, -26.29, -19.09, -22.80, -24.50, -15.40, -17.81, -22.75, -19.00, -23.29, -13.88, -23.72, -25.35, -24.83, -21.06, -18.28, 0.000, 0.000, 0.000, 11:22:57.831
161, 0.00, -26.29, -19.36, -22.69, -24.54, -15.33, -17.93, -22.89, -19.00, -23.29, -13.88, -23.72, -25.35, -24.83, -21.06, -18.28, 0.000, 0.000, 0.000, 11:22:57.838
162, 0.00, -26.29, -19.36, -22.69, -24.54, -15.33, -17.93, -22.89, -18.82, -23.38, -13.68, -23.92, -25.21, -24.90, -20.97, -18.22, 0.000, 0.000, 0.000, 11:22:57.838
163, 0.00, -26.26, -19.00, -22.73, -24.63, -15.40, -18.02, -22.69, -18.82, -23.38, -13.68, -23.92, -25.21, -24.90, -20.97, -18.22, 0.000, 0.000, 0.000, 11:22:57.849
164, 0.00, -26.26, -19.00, -22.73, -24.63, -15.40, -18.02, -22.69, -18.91, -23.65, -13.77, -24.01, -25.30, -24.83, -21.12, -18.17, 0.108, 0.864, 0.508, 11:22:57.849
165, 0.00, -26.26, -19.16, -22.62, -24.52, -15.36, -17.93, -22.78, -18.91, -23.65, -13.77, -24.01, -25.30, -24.83, -21.12, -18.17, 0.000, 0.000, 0.000, 11:22:57.849
166, 0.00, -26.26, -19.16, -22.62, -24.52, -15.36, -17.93, -22.78, -18.91, -23.49, -13.81, -23.83, -25.17, -24.83, -21.03, -18.31, 0.000, 0.000, 0.000, 11:22:57.855
167, 0.00, -26.20, -19.20, -22.80, -24.48, -15.51, -17.86, -22.82, -18.91, -23.49, -13.81, -23.83, -25.17, -24.83, -21.03, -18.31, 0.000, 0.000, 0.000, 11:22:57.862
168, 0.00, -26.20, -19.20, -22.80, -24.48, -15.51, -17.86, -22.82, -18.98, -23.49, -14.01, -23.96, -25.41, -24.72, -21.14, -18.44, 0.000, 0.000, 0.000, 11:22:57.862
169, 0.00, -26.24, -19.22, -22.82, -24.41, -15.47, -17.86, -22.87, -18.98, -23.49, -14.01, -23.96, -25.41, -24.72, -21.14, -18.44, 0.000, 0.000, 0.000, 11:22:57.868
170, 0.00, -26.24, -19.22, -22.82, -24.41, -15.47, -17.86, -22.87, -18.89, -23.40, -14.06, -23.87, -25.39, -24.81, -20.99, -18.17, 0.000, 0.000, 0.000, 11:22:57.868
171, 0.00, -26.29, -19.36, -22.89, -24.36, -15.56, -17.72, -22.89, -18.89, -23.40, -14.06, -23.87, -25.39, -24.81, -20.99, -18.17, 0.000, 0.000, 0.000, 11:22:57.875
172, 0.00, -26.29, -19.36, -22.89, -24.36, -15.56, -17.72, -22.89, -18.93, -23.60, -14.15, -24.01, -25.50, -24.65, -21.10, -18.04, 0.000, 0.000, 0.000, 11:22:57.880
173, 0.00, -26.46, -19.27, -22.78, -24.54, -15.40, -18.02, -22.80, -18.93, -23.60, -14.15, -24.01, -25.50, -24.65, -21.10, -18.04, 0.000, 0.000, 0.000, 11:22:57.885
174, 0.00, -26.46, -19.27, -22.78, -24.54, -15.40, -18.02, -22.80, -18.89, -23.51, -13.97, -23.78, -25.21, -24.72, -21.19, -17.99, 0.120, 0.852, 0.526, 11:22:57.885
175, 0.00, -26.33, -19.33, -22.78, -24.74, -15.51, -18.02, -22.71, -18.89, -23.51, -13.97, -23.78, -25.21, -24.72, -21.19, -17.99, 0.000, 0.000, 0.000, 11:22:57.891
176, 0.00, -26.33, -19.33, -22.78, -24.74, -15.51, -18.02, -22.71, -18.93, -23.42, -13.90, -24.03, -25.26, -24.61, -21.10, -18.13, 0.000, 0.000, 0.000, 11:22:57.896
177, 0.00, -26.24, -19.04, -22.64, -24.59, -15.53, -18.02, -22.58, -18.93, -23.42, -13.90, -24.03, -25.26, -24.61, -21.10, -18.13, 0.000, 0.000, 0.000, 11:22:57.901
178, 0.00, -26.24, -19.04, -22.64, -24.59, -15.53, -18.02, -22.58, -18.86, -23.63, -13.88, -24.01, -25.26, -24.70, -21.03, -18.13, 0.000, 0.000, 0.000, 11:22:57.901
179, 0.00, -26.33, -19.22, -22.89, -24.50, -15.69, -17.77, -22.53, -18.86, -23.63, -13.88, -24.01, -25.26, -24.70, -21.03, -18.13, 0.000, 0.000, 0.000, 11:22:58.386
180, 0.00, -26.33, -19.22, -22.89, -24.50, -15.69, -17.77, -22.53, -18.95, -23.56, -13.70, -23.96, -25.64, -24.79, -21.19, -18.06, 0.000, 0.000, 0.000, 11:22:58.388
181, 0.00, -26.51, -19.27, -22.66, -24.50, -15.51, -17.93, -22.73, -18.95, -23.56, -13.70, -23.96, -25.64, -24.79, -21.19, -18.06, 0.000, 0.000, 0.000, 11:22:58.388
182, 0.00, -26.51, -19.27, -22.66, -24.50, -15.51, -17.93, -22.73, -18.69, -23.31, -13.81, -24.18, -25.44, -24.77, -21.17, -18.02, 0.000, 0.000, 0.000, 11:22:58.388
183, 0.00, -26.17, -19.45, -22.71, -24.41, -15.20, -18.08, -22.75, -18.69, -23.31, -13.81, -24.18, -25.44, -24.77, -21.17, -18.02, 0.146, 0.844, 0.540, 11:22:58.388
184, 0.00, -26.17, -19.45, -22.71, -24.41, -15.20, -18.08, -22.75, -18.66, -23.42, -13.84, -24.10, -25.32, -24.90, -21.30, -18.13, 0.000, 0.000, 0.000, 11:22:58.388
185, 0.00, -26.15, -19.13, -22.71, -24.61, -15.49, -18.10, -22.62, -18.66, -23.42, -13.84, -24.10, -25.32, -24.90, -21.30, -18.13, 0.000, 0.000, 0.000, 11:22:58.388
186, 0.00, -26.15, -19.13, -22.71, -24.61, -15.49, -18.10, -22.62, -18.95, -23.45, -13.88, -23.92, -25.32, -24.79, -21.17, -17.86, 0.000, 0.000, 0.000, 11:22:58.389
187, 0.00, -26.13, -19.47, -22.66, -24.41, -15.56, -17.66, -22.84, -18.95, -23.45, -13.88, -23.92, -25.32, -24.79, -21.17, -17.86, 0.000, 0.000, 0.000, 11:22:58.389
188, 0.00, -26.13, -19.47, -22.66, -24.41, -15.56, -17.66, -22.84, -19.00, -23.47, -14.01, -23.87, -25.17, -24.88, -21.01, -18.17, 0.000, 0.000, 0.000, 11:22:58.389
189, 0.00, -26.04, -19.29, -22.62, -24.36, -15.53, -17.86, -22.82, -19.00, -23.47, -14.01, -23.87, -25.17, -24.88, -21.01, -18.17, 0.000, 0.000, 0.000, 11:22:58.389
190, 0.00, -26.04, -19.29, -22.62, -24.36, -15.53, -17.86, -22.82, -19.04, -23.34, -14.08, -23.87, -25.28, -24.88, -21.08, -18.24, 0.000, 0.000, 0.000, 11:22:58.389
191, 0.00, -26.20, -19.24, -22.91, -24.27, -15.53, -17.77, -22.87, -19.04, -23.34, -14.08, -23.87, -25.28, -24.88, -21.08, -18.24, 0.000, 0.000, 0.000, 11:22:58.389
192, 0.00, -26.20, -19.24, -22.91, -24.27, -15.53, -17.77, -22.87, -18.91, -23.63, -14.01, -24.07, -25.46, -24.81, -21.14, -18.17, 0.000, 0.000, 0.000, 11:22:58.390
193, 0.00, -26.20, -19.38, -22.78, -24.43, -15.42, -17.79, -22.82, -18.91, -23.63, -14.01, -24.07, -25.46, -24.81, -21.14, -18.17, 0.160, 0.834, 0.540, 11:22:58.390
194, 0.00, -26.20, -19.38, -22.78, -24.43, -15.42, -17.79, -22.82, -19.00, -23.49, -13.93, -24.01, -25.32, -24.72, -21.26, -18.22, 0.000, 0.000, 0.000, 11:22:58.390
195, 0.00, -26.15, -19.24, -22.80, -24.45, -15.45, -18.02, -22.84, -19.00, -23.49, -13.93, -24.01, -25.32, -24.72, -21.26, -18.22, 0.000, 0.000, 0.000, 11:22:58.390
196, 0.00, -26.15, -19.24, -22.80, -24.45, -15.45, -18.02, -22.84, -19.02, -23.45, -13.99, -23.85, -25.41, -24.72, -21.17, -18.08, 0.000, 0.000, 0.000, 11:22:58.390
197, 0.00, -26.31, -19.36, -22.60, -24.43, -15.47, -17.90, -22.80, -19.02, -23.45, -13.99, -23.85, -25.41, -24.72, -21.17, -18.08, 0.000, 0.000, 0.000, 11:22:58.390
198, 0.00, -26.31, -19.36, -22.60, -24.43, -15.47, -17.90, -22.80, -18.91, -23.29, -13.88, -23.87, -25.39, -25.01, -21.21, -17.88, 0.000, 0.000, 0.000, 11:22:58.391
199, 0.00, -26.51, -19.16, -22.73, -24.56, -15.49, -17.77, -22.75, -18.91, -23.29, -13.88, -23.87, -25.39, -25.01, -21.21, -17.88, 0.000, 0.000, 0.000, 11:22:58.391
200, 0.00, -26.51, -19.16, -22.73, -24.56, -15.49, -17.77, -22.75, -18.95, -23.40, -13.79, -23.72, -25.59, -24.83, -21.12, -17.90, 0.000, 0.000, 0.000, 11:22:58.391
201, 0.00, -26.20, -19.29, -22.78, -24.36, -15.69, -17.88, -22.58, -18.95, -23.40, -13.79, -23.72, -25.59, -24.83, -21.12, -17.90, 0.000, 0.000, 0.000, 11:22:58.397
202, 0.00, -26.20, -19.29, -22.78, -24.36, -15.69, -17.88, -22.58, -19.09, -23.58, -14.13, -24.10, -25.41, -24.83, -21.17, -17.88, 0.000, 0.000, 0.000, 11:22:58.398
203, 0.00, -26.29, -19.27, -22.71, -24.63, -15.56, -17.88, -22.75, -19.09, -23.58, -14.13, -24.10, -25.41, -24.83, -21.17, -17.88, 0.148, 0.826, 0.536, 11:22:58.398
204, 0.00, -26.29, -19.27, -22.71, -24.63, -15.56, -17.88, -22.75, -19.02, -23.60, -13.97, -24.07, -25.48, -24.68, -21.28, -18.15, 0.000, 0.000, 0.000, 11:22:58.400
205, 0.00, -26.33, -19.11, -22.71, -24.56, -15.51, -17.79, -22.60, -19.02, -23.60, -13.97, -24.07, -25.48, -24.68, -21.28, -18.15, 0.000, 0.000, 0.000, 11:22:58.403
206, 0.00, -26.33, -19.11, -22.71, -24.56, -15.51, -17.79, -22.60, -18.84, -23.60, -13.90, -24.18, -25.32, -24.74, -21.28, -18.17, 0.000, 0.000, 0.000, 11:22:58.403
207, 0.00, -26.17, -19.33, -22.93, -24.41, -15.31, -17.70, -22.78, -18.84, -23.60, -13.90, -24.18, -25.32, -24.74, -21.28, -18.17, 0.000, 0.000, 0.000, 11:22:58.403
208, 0.00, -26.17, -19.33, -22.93, -24.41, -15.31, -17.70, -22.78, -18.98, -23.51, -13.90, -24.01, -25.17, -24.77, -21.03, -18.22, 0.000, 0.000, 0.000, 11:22:58.403
209, 0.00, -26.35, -19.11, -22.64, -24.32, -15.38, -17.75, -22.75, -18.98, -23.51, -13.90, -24.01, -25.17, -24.77, -21.03, -18.22, 0.000, 0.000, 0.000, 11:22:58.403
210, 0.00, -26.35, -19.11, -22.64, -24.32, -15.38, -17.75, -22.75, -18.98, -23.51, -13.68, -24.07, -25.46, -24.79, -21.01, -18.08, 0.000, 0.000, 0.000, 11:22:58.403
211, 0.00, -26.53, -19.22, -22.62, -24.48, -15.51, -17.84, -22.71, -18.98, -23.51, -13.68, -24.07, -25.46, -24.79, -21.01, -18.08, 0.000, 0.000, 0.000, 11:22:58.404
212, 0.00, -26.53, -19.22, -22.62, -24.48, -15.51, -17.84, -22.71, -18.95, -23.49, -14.10, -23.80, -25.55, -24.72, -21.14, -17.95, 0.000, 0.000, 0.000, 11:22:58.404
213, 0.00, -26.20, -19.04, -22.80, -24.56, -15.53, -17.84, -22.69, -18.95, -23.49, -14.10, -23.80, -25.55, -24.72, -21.14, -17.95, 0.124, 0.814, 0.530, 11:22:58.404
214, 0.00, -26.20, -19.04, -22.80, -24.56, -15.53, -17.84, -22.69, -19.07, -23.36, -13.93, -23.85, -25.17, -24.68, -21.17, -18.02, 0.000, 0.000, 0.000, 11:22:58.404
215, 0.00, -26.35, -19.45, -22.62, -24.32, -15.40, -17.93, -22.58, -19.07, -23.36, -13.93, -23.85, -25.17, -24.68, -21.17, -18.02, 0.000, 0.000, 0.000, 11:22:58.404
216, 0.00, -26.35, -19.45, -22.62, -24.32, -15.40, -17.93, -22.58, -18.82, -23.45, -13.95, -24.03, -25.35, -24.68, -21.14, -17.81, 0.000, 0.000, 0.000, 11:22:58.418
217, 0.00, -26.46, -19.04, -22.98, -24.48, -15.56, -17.97, -22.60, -18.82, -23.45, -13.95, -24.03, -25.35, -24.68, -21.14, -17.81, 0.000, 0.000, 0.000, 11:22:58.418
218, 0.00, -26.46, -19.04, -22.98, -24.48, -15.56, -17.97, -22.60, -18.86, -23.34, -14.13, -23.96, -25.44, -24.52, -21.57, -17.97, 0.000, 0.000, 0.000, 11:22:58.418
219, 0.00, -26.26, -19.42, -22.96, -24.43, -15.42, -17.81, -22.84, -18.86, -23.34, -14.13, -23.96, -25.44, -24.52, -21.57, -17.97, 0.000, 0.000, 0.000, 11:22:58.418
220, 0.00, -26.26, -19.42, -22.96, -24.43, -15.42, -17.81, -22.84, -18.80, -23.54, -13.88, -24.01, -25.35, -24.54, -21.10, -17.95, 0.000, 0.000, 0.000, 11:22:58.418
221, 0.00, -26.35, -19.16, -22.80, -24.36, -15.60, -17.86, -22.69, -18.80, -23.54, -13.88, -24.01, -25.35, -24.54, -21.10, -17.95, 0.000, 0.000, 0.000, 11:22:58.419
222, 0.00, -26.35, -19.16, -22.80, -24.36, -15.60, -17.86, -22.69, -19.02, -23.31, -13.93, -24.07, -25.19, -24.88, -21.03, -17.93, 0.000, 0.000, 0.000, 11:22:58.419
223, 0.00, -26.08, -19.18, -22.84, -24.52, -15.47, -17.81, -22.75, -19.02, -23.31, -13.93, -24.07, -25.19, -24.88, -21.03, -17.93, 0.104, 0.788, 0.534, 11:22:58.428
224, 0.00, -26.08, -19.18, -22.84, -24.52, -15.47, -17.81, -22.75, -19.11, -23.63, -13.90, -24.07, -25.12, -24.90, -21.17, -18.02, 0.000, 0.000, 0.000, 11:22:58.428
225, 0.00, -26.24, -19.27, -22.62, -24.48, -15.69, -17.99, -22.55, -19.11, -23.63, -13.90, -24.07, -25.12, -24.90, -21.17, -18.02, 0.000, 0.000, 0.000, 11:22:58.428
226, 0.00, -26.24, -19.27, -22.62, -24.48, -15.69, -17.99, -22.55, -18.66, -23.38, -13.88, -23.89, -25.35, -24.81, -20.92, -17.88, 0.000, 0.000, 0.000, 11:22:58.428
227, 0.00, -26.11, -19.18, -22.73, -24.45, -15.62, -17.81, -22.84, -18.66, -23.38, -13.88, -23.89, -25.35, -24.81, -20.92, -17.88, 0.000, 0.000, 0.000, 11:22:58.428
228, 0.00, -26.11, -19.18, -22.73, -24.45, -15.62, -17.81, -22.84, -18.86, -23.51, -13.97, -23.87, -25.39, -24.74, -21.17, -18.17, 0.000, 0.000, 0.000, 11:22:58.428
229, 0.00, -26.24, -19.42, -22.93, -24.50, -15.38, -17.81, -22.69, -18.86, -23.51, -13.97, -23.87, -25.39, -24.74, -21.17, -18.17, 0.000, 0.000, 0.000, 11:22:58.429
230, 0.00, -26.24, -19.42, -22.93, -24.50, -15.38, -17.81, -22.69, -18.71, -23.56, -13.99, -24.01, -25.41, -24.86, -21.19, -18.06, 0.000, 0.000, 0.000, 11:22:58.429
231, 0.00, -26.26, -19.36, -22.93, -24.59, -15.56, -18.15, -22.49, -18.71, -23.56, -13.99, -24.01, -25.41, -24.86, -21.19, -18.06, 0.000, 0.000, 0.000, 11:22:58.429
232, 0.00, -26.26, -19.36, -22.93, -24.59, -15.56, -18.15, -22.49, -18.84, -23.25, -13.95, -23.98, -25.48, -24.86, -21.17, -18.15, 0.000, 0.000, 0.000, 11:22:58.429
233, 0.00, -26.29, -19.20, -22.60, -24.23, -15.62, -17.95, -22.96, -18.84, -23.25, -13.95, -23.98, -25.48, -24.86, -21.17, -18.15, 0.080, 0.786, 0.530, 11:22:58.429
234, 0.00, -26.29, -19.20, -22.60, -24.23, -15.62, -17.95, -22.96, -18.78, -23.45, -13.95, -24.10, -25.32, -24.92, -21.17, -17.84, 0.000, 0.000, 0.000, 11:22:58.429
235, 0.00, -26.38, -19.38, -22.66, -24.39, -15.71, -17.93, -22.89, -18.78, -23.45, -13.95, -24.10, -25.32, -24.92, -21.17, -17.84, 0.000, 0.000, 0.000, 11:22:58.430
236, 0.00, -26.38, -19.38, -22.66, -24.39, -15.71, -17.93, -22.89, -18.84, -23.49, -13.95, -24.07, -25.21, -24.59, -21.19, -17.93, 0.000, 0.000, 0.000, 11:22:58.430
237, 0.00, -26.24, -19.31, -22.87, -24.27, -15.56, -18.08, -22.75, -18.84, -23.49, -13.95, -24.07, -25.21, -24.59, -21.19, -17.93, 0.000, 0.000, 0.000, 11:22:58.430
238, 0.00, -26.24, -19.31, -22.87, -24.27, -15.56, -18.08, -22.75, -18.82, -23.49, -13.88, -23.76, -25.44, -24.79, -21.28, -17.95, 0.000, 0.000, 0.000, 11:22:58.430
239, 0.00, -26.17, -19.20, -22.89, -24.39, -15.58, -18.15, -22.80, -18.82, -23.49, -13.88, -23.76, -25.44, -24.79, -21.28, -17.95, 0.000, 0.000, 0.000, 11:22:58.430
240, 0.00, -26.17, -19.20, -22.89, -24.39, -15.58, -18.15, -22.80, -18.78, -23.49, -13.84, -24.05, -25.12, -24.72, -21.17, -17.90, 0.000, 0.000, 0.000, 11:22:58.430
241, 0.00, -26.22, -19.31, -23.04, -24.23, -15.53, -17.86, -22.62, -18.78, -23.49, -13.84, -24.05, -25.12, -24.72, -21.17, -17.90, 0.000, 0.000, 0.000, 11:22:58.447
242, 0.00, -26.22, -19.31, -23.04, -24.23, -15.53, -17.86, -22.62, -18.89, -23.40, -13.95, -23.94, -24.97, -24.63, -21.03, -18.10, 0.080, 0.802, 0.526, 11:22:58.447
243, 0.00, -26.49, -19.07, -22.82, -24.48, -15.53, -17.75, -22.62, -18.89, -23.40, -13.95, -23.94, -24.97, -24.63, -21.03, -18.10, 0.000, 0.000, 0.000, 11:22:58.448
244, 0.00, -26.49, -19.07, -22.82, -24.48, -15.53, -17.75, -22.62, -18.89, -23.47, -13.70, -23.94, -25.24, -24.61, -21.17, -17.97, 0.000, 0.000, 0.000, 11:22:58.448
245, 0.00, -26.22, -19.31, -22.75, -24.41, -15.60, -17.95, -22.71, -18.89, -23.47, -13.70, -23.94, -25.24, -24.61, -21.17, -17.97, 0.000, 0.000, 0.000, 11:22:58.451
246, 0.00, -26.22, -19.31, -22.75, -24.41, -15.60, -17.95, -22.71, -19.07, -23.34, -13.68, -23.83, -25.37, -24.70, -21.03, -18.10, 0.000, 0.000, 0.000, 11:22:58.451
247, 0.00, -26.11, -19.38, -22.80, -24.41, -15.74, -17.95, -22.66, -19.07, -23.34, -13.68, -23.83, -25.37, -24.70, -21.03, -18.10, 0.000, 0.000, 0.000, 11:22:58.458
248, 0.00, -26.11, -19.38, -22.80, -24.41, -15.74, -17.95, -22.66, -18.86, -23.36, -13.75, -24.10, -25.35, -24.65, -21.37, -17.99, 0.000, 0.000, 0.000, 11:22:58.459
249, 0.00, -26.22, -19.16, -22.71, -24.43, -15.38, -17.93, -22.96, -18.86, -23.36, -13.75, -24.10, -25.35, -24.65, -21.37, -17.99, 0.000, 0.000, 0.000, 11:22:58.462
250, 0.00, -26.22, -19.16, -22.71, -24.43, -15.38, -17.93, -22.96, -18.95, -23.40, -13.84, -24.14, -25.35, -24.77, -21.01, -18.13, 0.000, 0.000, 0.000, 11:22:58.462
251, 0.00, -26.24, -19.45, -22.82, -24.50, -15.74, -17.86, -22.46, -18.95, -23.40, -13.84, -24.14, -25.35, -24.77, -21.01, -18.13, 0.000, 0.000, 0.000, 11:22:58.462
252, 0.00, -26.24, -19.45, -22.82, -24.50, -15.74, -17.86, -22.46, -18.95, -23.25, -13.88, -23.83, -25.28, -24.68, -20.99, -17.93, 0.096, 0.832, 0.528, 11:22:58.463
253, 0.00, -26.46, -19.20, -22.82, -24.52, -15.36, -17.75, -22.69, -18.95, -23.25, -13.88, -23.83, -25.28, -24.68, -20.99, -17.93, 0.000, 0.000, 0.000, 11:22:58.463
254, 0.00, -26.46, -19.20, -22.82, -24.52, -15.36, -17.75, -22.69, -18.89, -23.27, -13.86, -23.85, -25.28, -24.88, -21.03, -18.24, 0.000, 0.000, 0.000, 11:22:58.463
255, 0.00, -26.44, -19.38, -22.69, -24.56, -15.33, -17.97, -22.64, -18.89, -23.27, -13.86, -23.85, -25.28, -24.88, -21.03, -18.24, 0.000, 0.000, 0.000, 11:22:58.463
0, 0.00, -26.44, -19.38, -22.69, -24.56, -15.33, -17.97, -22.64, -18.78, -23.65, -13.88, -23.96, -25.19, -24.79, -21.32, -18.22, 0.000, 0.000, 0.000, 11:22:58.463
1, 0.00, -26.44, -19.51, -22.98, -24.45, -15.56, -17.95, -22.64, -18.78, -23.65, -13.88, -23.96, -25.19, -24.79, -21.32, -18.22, 0.000, 0.000, 0.000, 11:22:58.463
2, 0.00, -26.44, -19.51, -22.98, -24.45, -15.56, -17.95, -22.64, -18.93, -23.65, -14.10, -23.80, -25.28, -24.63, -21.30, -18.10, 0.000, 0.000, 0.000, 11:22:58.464
3, 0.00, -26.20, -19.47, -22.78, -24.30, -15.58, -17.93, -22.58, -18.93, -23.65, -14.10, -23.80, -25.28, -24.63, -21.30, -18.10, 0.000, 0.000, 0.000, 11:22:58.464
4, 0.00, -26.20, -19.47, -22.78, -24.30, -15.58, -17.93, -22.58, -18.69, -23.36, -14.13, -23.85, -25.44, -24.68, -21.21, -18.13, 0.000, 0.000, 0.000, 11:22:58.464
5, 0.00, -26.08, -19.47, -22.66, -24.52, -15.60, -17.99, -22.80, -18.69, -23.36, -14.13, -23.85, -25.44, -24.68, -21.21, -18.13, 0.000, 0.000, 0.000, 11:22:58.464
6, 0.00, -26.08, -19.47, -22.66, -24.52, -15.60, -17.99, -22.80, -18.86, -23.54, -13.81, -24.07, -25.35, -24.79, -21.10, -18.19, 0.122, 0.856, 0.540, 11:22:58.464
7, 0.00, -26.13, -19.33, -22.69, -24.27, -15.45, -17.88, -22.71, -18.86, -23.54, -13.81, -24.07, -25.35, -24.79, -21.10, -18.19, 0.000, 0.000, 0.000, 11:22:58.464
8, 0.00, -26.13, -19.33, -22.69, -24.27, -15.45, -17.88, -22.71, -19.00, -23.60, -13.93, -24.03, -25.32, -24.68, -21.17, -17.99, 0.000, 0.000, 0.000, 11:22:58.464
9, 0.00, -26.31, -19.20, -22.87, -24.36, -15.38, -17.99, -22.60, -19.00, -23.60, -13.93, -24.03, -25.32, -24.68, -21.17, -17.99, 0.000, 0.000, 0.000, 11:22:58.465
10, 0.00, -26.31, -19.20, -22.87, -24.36, -15.38, -17.99, -22.60, -18.82, -23.54, -13.95, -23.89, -25.53, -24.54, -21.12, -18.04, 0.000, 0.000, 0.000, 11:22:58.465
11, 0.00, -26.17, -19.31, -22.73, -24.56, -15.22, -17.84, -22.66, -18.82, -23.54, -13.95, -23.89, -25.53, -24.54, -21.12, -18.04, 0.000, 0.000, 0.000, 11:22:58.465
12, 0.00, -26.17, -19.31, -22.73, -24.56, -15.22, -17.84, -22.66, -18.95, -23.63, -13.77, -24.16, -25.28, -24.68, -21.28, -18.04, 0.000, 0.000, 0.000, 11:22:58.465
13, 0.00, -26.15, -19.04, -22.78, -24.54, -15.53, -17.86, -22.58, -18.95, -23.63, -13.77, -24.16, -25.28, -24.68, -21.28, -18.04, 0.000, 0.000, 0.000, 11:22:58.465
14, 0.00, -26.15, -19.04, -22.78, -24.54, -15.53, -17.86, -22.58, -18.91, -23.54, -13.66, -23.92, -25.46, -24.59, -21.46, -18.02, 0.000, 0.000, 0.000, 11:22:58.465
15, 0.00, -26.35, -19.33, -22.44, -24.63, -15.65, -18.04, -22.75, -18.91, -23.54, -13.66, -23.92, -25.46, -24.59, -21.46, -18.02, 0.000, 0.000, 0.000, 11:22:58.465
16, 0.00, -26.35, -19.33, -22.44, -24.63, -15.65, -18.04, -22.75, -19.04, -23.47, -13.90, -23.87, -25.41, -24.59, -21.30, -18.02, 0.144, 0.844, 0.548, 11:22:58.466
17, 0.00, -26.29, -19.18, -22.82, -24.27, -15.62, -17.95, -22.73, -19.04, -23.47, -13.90, -23.87, -25.41, -24.59, -21.30, -18.02, 0.000, 0.000, 0.000, 11:22:58.466
18, 0.00, -26.29, -19.18, -22.82, -24.27, -15.62, -17.95, -22.73, -18.75, -23.74, -14.01, -23.94, -25.37, -24.63, -21.28, -18.04, 0.000, 0.000, 0.000, 11:22:58.466
19, 0.00, -26.04, -19.09, -22.87, -24.36, -15.60, -17.75, -22.82, -18.75, -23.74, -14.01, -23.94, -25.37, -24.63, -21.28, -18.04, 0.000, 0.000, 0.000, 11:22:58.466
20, 0.00, -26.04, -19.09, -22.87, -24.36, -15.60, -17.75, -22.82, -18.69, -23.56, -13.77, -23.80, -25.15, -24.77, -21.26, -18.08, 0.000, 0.000, 0.000, 11:22:58.466
21, 0.00, -26.26, -19.20, -22.55, -24.50, -15.40, -17.88, -22.87, -18.69, -23.56, -13.77, -23.80, -25.15, -24.77, -21.26, -18.08, 0.000, 0.000, 0.000, 11:22:58.497
22, 0.00, -26.26, -19.20, -22.55, -24.50, -15.40, -17.88, -22.87, -19.04, -23.36, -13.81, -23.94, -25.21, -24.88, -21.32, -17.93, 0.000, 0.000, 0.000, 11:22:58.497
23, 0.00, -26.22, -19.31, -22.98, -24.43, -15.58, -17.81, -22.84, -19.04, -23.36, -13.81, -23.94, -25.21, -24.88, -21.32, -17.93, 0.000, 0.000, 0.000, 11:22:58.497
24, 0.00, -26.22, -19.31, -22.98, -24.43, -15.58, -17.81, -22.84, -18.89, -23.38, -13.95, -23.74, -25.28, -24.86, -21.23, -18.06, 0.000, 0.000, 0.000, 11:22:58.497
25, 0.00, -26.31, -19.16, -22.84, -24.48, -15.71, -17.86, -22.84, -18.89, -23.38, -13.95, -23.74, -25.28, -24.86, -21.23, -18.06, 0.000, 0.000, 0.000, 11:22:58.497
26, 0.00, -26.31, -19.16, -22.84, -24.48, -15.71, -17.86, -22.84, -18.80, -23.36, -14.10, -23.98, -25.21, -24.72, -21.08, -18.02, 0.150, 0.846, 0.546, 11:22:58.497
27, 0.00, -26.33, -19.18, -22.82, -24.45, -15.71, -17.93, -22.62, -18.80, -23.36, -14.10, -23.98, -25.21, -24.72, -21.08, -18.02, 0.000, 0.000, 0.000, 11:22:58.498
28, 0.00, -26.33, -19.18, -22.82, -24.45, -15.71, -17.93, -22.62, -18.84, -23.38, -13.90, -23.96, -25.41, -24.79, -21.30, -18.15, 0.000, 0.000, 0.000, 11:22:58.498
29, 0.00, -26.51, -19.09, -22.69, -24.32, -15.40, -17.93, -22.73, -18.84, -23.38, -13.90, -23.96, -25.41, -24.79, -21.30, -18.15, 0.000, 0.000, 0.000, 11:22:58.498
30, 0.00, -26.51, -19.09, -22.69, -24.32, -15.40, -17.93, -22.73, -19.07, -23.49, -13.97, -23.96, -25.41, -24.90, -21.19, -18.24, 0.000, 0.000, 0.000, 11:22:58.498
31, 0.00, -26.26, -19.16, -22.87, -24.45, -15.45, -17.81, -22.64, -19.07, -23.49, -13.97, -23.96, -25.41, -24.90, -21.19, -18.24, 0.000, 0.000, 0.000, 11:22:58.500
32, 0.00, -26.26, -19.16, -22.87, -24.45, -15.45, -17.81, -22.64, -19.00, -23.31, -13.93, -23.85, -25.30, -24.65, -21.21, -17.99, 0.000, 0.000, 0.000, 11:22:58.500
33, 0.00, -26.22, -19.07, -22.71, -24.36, -15.53, -18.02, -22.91, -19.00, -23.31, -13.93, -23.85, -25.30, -24.65, -21.21, -17.99, 0.000, 0.000, 0.000, 11:22:58.500
34, 0.00, -26.22, -19.07, -22.71, -24.36, -15.53, -18.02, -22.91, -18.86, -23.51, -13.95, -23.96, -25.24, -24.86, -21.26, -18.22, 0.000, 0.000, 0.000, 11:22:58.500
35, 0.00, -26.15, -19.22, -22.71, -24.36, -15.65, -17.99, -22.80, -18.86, -23.51, -13.95, -23.96, -25.24, -24.86, -21.26, -18.22, 0.000, 0.000, 0.000, 11:22:58.501
36, 0.00, -26.15, -19.22, -22.71, -24.36, -15.65, -17.99, -22.80, -19.11, -23.60, -14.04, -23.92, -25.17, -24.79, -21.08, -17.90, 0.154, 0.834, 0.544, 11:22:58.501
37, 0.00, -26.22, -19.29, -22.64, -24.39, -15.45, -17.90, -22.64, -19.11, -23.60, -14.04, -23.92, -25.17, -24.79, -21.08, -17.90, 0.000, 0.000, 0.000, 11:22:58.501
38, 0.00, -26.22, -19.29, -22.64, -24.39, -15.45, -17.90, -22.64, -18.84, -23.20, -13.81, -23.89, -25.28, -24.74, -21.03, -17.97, 0.000, 0.000, 0.000, 11:22:58.505
39, 0.00, -26.22, -19.47, -22.66, -24.50, -15.31, -18.04, -22.98, -18.84, -23.20, -13.81, -23.89, -25.28, -24.74, -21.03, -17.97, 0.000, 0.000, 0.000, 11:22:58.505
40, 0.00, -26.22, -19.47, -22.66, -24.50, -15.31, -18.04, -22.98, -18.82, -23.60, -13.99, -24.18, -25.30, -24.74, -21.32, -18.02, 0.000, 0.000, 0.000, 11:22:58.505
41, 0.00, -26.06, -19.27, -22.84, -24.39, -15.45, -17.95, -22.55, -18.82, -23.60, -13.99, -24.18, -25.30, -24.74, -21.32, -18.02, 0.000, 0.000, 0.000, 11:22:58.505
42, 0.00, -26.06, -19.27, -22.84, -24.39, -15.45, -17.95, -22.55, -19.09, -23.45, -13.90, -24.12, -25.19, -24.79, -20.97, -18.08, 0.000, 0.000, 0.000, 11:22:58.505
43, 0.00, -26.29, -19.27, -22.82, -24.41, -15.51, -17.77, -22.64, -19.09, -23.45, -13.90, -24.12, -25.19, -24.79, -20.97, -18.08, 0.000, 0.000, 0.000, 11:22:58.505
44, 0.00, -26.29, -19.27, -22.82, -24.41, -15.51, -17.77, -22.64, -19.24, -23.58, -14.01, -23.89, -25.28, -24.70, -21.28, -17.90, 0.000, 0.000, 0.000, 11:22:58.524
45, 0.00, -26.33, -19.27, -22.69, -24.32, -15.58, -17.79, -22.69, -19.24, -23.58, -14.01, -23.89, -25.28, -24.70, -21.28, -17.90, 0.000, 0.000, 0.000, 11:22:58.524
46, 0.00, -26.33, -19.27, -22.69, -24.32, -15.58, -17.79, -22.69, -19.02, -23.42, -13.93, -24.12, -25.32, -24.79, -21.14, -17.97, 0.140, 0.804, 0.528, 11:22:58.524
47, 0.00, -26.35, -19.36, -22.75, -24.43, -15.49, -17.79, -22.64, -19.02, -23.42, -13.93, -24.12, -25.32, -24.79, -21.14, -17.97, 0.000, 0.000, 0.000, 11:22:58.524
48, 0.00, -26.35, -19.36, -22.75, -24.43, -15.49, -17.79, -22.64, -19.02, -23.42, -13.81, -24.01, -25.32, -24.90, -20.94, -17.97, 0.000, 0.000, 0.000, 11:22:58.524
49, 0.00, -26.40, -19.13, -22.64, -24.39, -15.53, -17.79, -22.66, -19.02, -23.42, -13.81, -24.01, -25.32, -24.90, -20.94, -17.97, 0.000, 0.000, 0.000, 11:22:58.524
50, 0.00, -26.40, -19.13, -22.64, -24.39, -15.53, -17.79, -22.66, -19.18, -23.49, -13.81, -24.10, -25.46, -24.86, -21.10, -17.97, 0.000, 0.000, 0.000, 11:22:58.525
51, 0.00, -26.20, -19.24, -22.96, -24.50, -15.49, -17.93, -22.71, -19.18, -23.49, -13.81, -24.10, -25.46, -24.86, -21.10, -17.97, 0.000, 0.000, 0.000, 11:22:58.525
52, 0.00, -26.20, -19.24, -22.96, -24.50, -15.49, -17.93, -22.71, -18.95, -23.38, -13.77, -23.78, -25.24, -24.74, -21.10, -17.81, 0.000, 0.000, 0.000, 11:22:58.525
53, 0.00, -26.29, -19.18, -22.91, -24.45, -15.58, -18.04, -22.69, -18.95, -23.38, -13.77, -23.78, -25.24, -24.74, -21.10, -17.81, 0.000, 0.000, 0.000, 11:22:58.525
54, 0.00, -26.29, -19.18, -22.91, -24.45, -15.58, -18.04, -22.69, -18.86, -23.36, -13.97, -23.94, -25.39, -24.70, -20.99, -18.02, 0.000, 0.000, 0.000, 11:22:58.525
55, 0.00, -26.20, -19.22, -22.89, -24.36, -15.51, -17.86, -22.89, -18.86, -23.36, -13.97, -23.94, -25.39, -24.70, -20.99, -18.02, 0.114, 0.780, 0.514, 11:22:58.526
56, 0.00, -26.20, -19.22, -22.89, -24.36, -15.51, -17.86, -22.89, -19.02, -23.22, -13.81, -23.85, -25.39, -24.79, -21.23, -18.04, 0.000, 0.000, 0.000, 11:22:58.526
57, 0.00, -26.26, -19.36, -22.55, -24.36, -15.62, -17.99, -22.82, -19.02, -23.22, -13.81, -23.85, -25.39, -24.79, -21.23, -18.04, 0.000, 0.000, 0.000, 11:22:58.526
58, 0.00, -26.26, -19.36, -22.55, -24.36, -15.62, -17.99, -22.82, -18.78, -23.36, -14.06, -23.96, -25.32, -24.72, -21.26, -18.02, 0.000, 0.000, 0.000, 11:22:58.526
59, 0.00, -26.20, -19.33, -22.80, -24.52, -15.49, -17.88, -22.93, -18.78, -23.36, -14.06, -23.96, -25.32, -24.72, -21.26, -18.02, 0.000, 0.000, 0.000, 11:22:58.526
78, 0.00, -26.20, -19.33, -22.80, -24.52, -15.49, -17.88, -22.93, -18.80, -23.63, -13.95, -23.94, -25.41, -24.77, -21.23, -18.15, 0.000, 0.000, 0.000, 11:22:58.527
79, 0.00, -26.13, -19.13, -22.80, -24.30, -15.60, -17.88, -22.84, -18.80, -23.63, -13.95, -23.94, -25.41, -24.77, -21.23, -18.15, 0.000, 0.000, 0.000, 11:22:58.528
80, 0.00, -26.13, -19.13, -22.80, -24.30, -15.60, -17.88, -22.84, -18.78, -23.51, -13.86, -23.89, -25.39, -24.68, -21.35, -18.04, 0.000, 0.000, 0.000, 11:22:58.534
81, 0.00, -26.17, -19.18, -22.89, -24.54, -15.31, -17.88, -22.80, -18.78, -23.51, -13.86, -23.89, -25.39, -24.68, -21.35, -18.04, 0.000, 0.000, 0.000, 11:22:58.538
82, 0.00, -26.17, -19.18, -22.89, -24.54, -15.31, -17.88, -22.80, -18.84, -23.40, -13.81, -24.03, -25.41, -24.65, -21.37, -17.97, 0.000, 0.000, 0.000, 11:22:58.539
83, 0.00, -26.26, -19.38, -22.93, -24.54, -15.51, -17.90, -22.71, -18.84, -23.40, -13.81, -24.03, -25.41, -24.65, -21.37, -17.97, 0.000, 0.000, 0.000, 11:22:58.544
84, 0.00, -26.26, -19.38, -22.93, -24.54, -15.51, -17.90, -22.71, -18.89, -23.40, -14.04, -24.01, -25.46, -24.81, -21.26, -18.22, 0.000, 0.000, 0.000, 11:22:58.550
85, 0.00, -26.33, -19.04, -22.80, -24.39, -15.56, -18.04, -22.84, -18.89, -23.40, -14.04, -24.01, -25.46, -24.81, -21.26, -18.22, 0.098, 0.856, 0.526, 11:22:58.555
86, 0.00, -26.33, -19.04, -22.80, -24.39, -15.56, -18.04, -22.84, -18.84, -23.36, -13.93, -23.74, -25.19, -24.79, -21.08, -17.90, 0.000, 0.000, 0.000, 11:22:58.555
87, 0.00, -26.06, -19.31, -22.75, -24.50, -15.56, -17.95, -22.82, -18.84, -23.36, -13.93, -23.74, -25.19, -24.79, -21.08, -17.90, 0.000, 0.000, 0.000, 11:22:58.561
88, 0.00, -26.06, -19.31, -22.75, -24.50, -15.56, -17.95, -22.82, -18.78, -23.63, -13.84, -23.69, -25.28, -24.79, -21.06, -18.10, 0.000, 0.000, 0.000, 11:22:58.567
89, 0.00, -26.33, -19.24, -22.66, -24.56, -15.40, -17.88, -22.69, -18.78, -23.63, -13.84, -23.69, -25.28, -24.79, -21.06, -18.10, 0.000, 0.000, 0.000, 11:22:58.568
90, 0.00, -26.33, -19.24, -22.66, -24.56, -15.40, -17.88, -22.69, -18.82, -23.54, -13.86, -23.98, -25.46, -24.79, -21.32, -17.93, 0.000, 0.000, 0.000, 11:22:58.574
91, 0.00, -26.31, -19.36, -22.82, -24.32, -15.51, -17.81, -22.71, -18.82, -23.54, -13.86, -23.98, -25.46, -24.79, -21.32, -17.93, 0.000, 0.000, 0.000, 11:22:58.579
92, 0.00, -26.31, -19.36, -22.82, -24.32, -15.51, -17.81, -22.71, -18.73, -23.65, -13.86, -23.98, -25.12, -24.74, -21.10, -17.75, 0.000, 0.000, 0.000, 11:22:58.580
93, 0.00, -26.17, -19.24, -22.71, -24.50, -15.62, -17.86, -22.60, -18.73, -23.65, -13.86, -23.98, -25.12, -24.74, -21.10, -17.75, 0.000, 0.000, 0.000, 11:22:58.585
94, 0.00, -26.17, -19.24, -22.71, -24.50, -15.62, -17.86, -22.60, -18.82, -23.54, -13.88, -24.10, -25.46, -24.61, -21.21, -17.93, 0.000, 0.000, 0.000, 11:22:58.589
95, 0.00, -26.26, -19.18, -22.78, -24.45, -15.47, -17.90, -22.80, -18.82, -23.54, -13.88, -24.10, -25.46, -24.61, -21.21, -17.93, 0.124, 0.862, 0.542, 11:22:58.594
96, 0.00, -26.26, -19.18, -22.78, -24.45, -15.47, -17.90, -22.80, -18.80, -23.40, -13.97, -24.03, -25.48, -24.92, -21.14, -17.84, 0.000, 0.000, 0.000, 11:22:58.595
97, 0.00, -26.22, -19.22, -22.91, -24.43, -15.56, -18.13, -22.69, -18.80, -23.40, -13.97, -24.03, -25.48, -24.92, -21.14, -17.84, 0.000, 0.000, 0.000, 11:22:58.600
98, 0.00, -26.22, -19.22, -22.91, -24.43, -15.56, -18.13, -22.69, -19.00, -23.69, -13.77, -24.03, -25.28, -24.97, -21.30, -17.84, 0.000, 0.000, 0.000, 11:22:58.605
99, 0.00, -26.26, -19.38, -22.73, -24.48, -15.42, -17.90, -22.71, -19.00, -23.69, -13.77, -24.03, -25.28, -24.97, -21.30, -17.84, 0.000, 0.000, 0.000, 11:22:58.611
100, 0.00, -26.26, -19.38, -22.73, -24.48, -15.42, -17.90, -22.71, -18.91, -23.51, -13.95, -24.18, -25.39, -24.97, -21.26, -18.10, 0.000, 0.000, 0.000, 11:22:58.612
101, 0.00, -26.33, -19.18, -22.73, -24.52, -15.36, -17.77, -23.02, -18.91, -23.51, -13.95, -24.18, -25.39, -24.97, -21.26, -18.10, 0.000, 0.000, 0.000, 11:22:58.617
102, 0.00, -26.33, -19.18, -22.73, -24.52, -15.36, -17.77, -23.02, -19.00, -23.49, -13.68, -24.12, -25.55, -24.88, -21.35, -17.93, 0.000, 0.000, 0.000, 11:22:58.622
103, 0.00, -26.51, -19.33, -22.78, -24.52, -15.33, -18.06, -22.91, -19.00, -23.49, -13.68, -24.12, -25.55, -24.88, -21.35, -17.93, 0.000, 0.000, 0.000, 11:22:58.623
104, 0.00, -26.51, -19.33, -22.78, -24.52, -15.33, -18.06, -22.91, -18.86, -23.51, -13.86, -23.89, -25.41, -24.94, -21.19, -17.90, 0.000, 0.000, 0.000, 11:22:58.630
105, 0.00, -26.29, -19.11, -22.84, -24.39, -15.45, -18.06, -22.66, -18.86, -23.51, -13.86, -23.89, -25.41, -24.94, -21.19, -17.90, 0.144, 0.842, 0.552, 11:22:58.631
106, 0.00, -26.29, -19.11, -22.84, -24.39, -15.45, -18.06, -22.66, -18.89, -23.49, -14.01, -24.05, -25.48, -24.72, -21.10, -18.04, 0.000, 0.000, 0.000, 11:22:58.639
107, 0.00, -26.22, -19.20, -23.07, -24.48, -15.47, -17.97, -22.66, -18.89, -23.49, -14.01, -24.05, -25.48, -24.72, -21.10, -18.04, 0.000, 0.000, 0.000, 11:22:58.639
108, 0.00, -26.22, -19.20, -23.07, -24.48, -15.47, -17.97, -22.66, -18.93, -23.40, -13.84, -23.89, -25.30, -24.65, -21.03, -17.99, 0.000, 0.000, 0.000, 11:22:58.647
109, 0.00, -26.44, -19.07, -22.71, -24.48, -15.33, -17.97, -22.62, -18.93, -23.40, -13.84, -23.89, -25.30, -24.65, -21.03, -17.99, 0.000, 0.000, 0.000, 11:22:58.648
110, 0.00, -26.44, -19.07, -22.71, -24.48, -15.33, -17.97, -22.62, -18.82, -23.69, -13.95, -23.63, -25.12, -24.77, -21.14, -17.88, 0.000, 0.000, 0.000, 11:22:58.655
111, 0.00, -26.44, -19.27, -22.98, -24.34, -15.31, -17.81, -22.53, -18.82, -23.69, -13.95, -23.63, -25.12, -24.77, -21.14, -17.88, 0.000, 0.000, 0.000, 11:22:58.656
112, 0.00, -26.44, -19.27, -22.98, -24.34, -15.31, -17.81, -22.53, -18.89, -23.36, -13.90, -23.76, -25.28, -24.72, -21.10, -17.99, 0.000, 0.000, 0.000, 11:22:58.662
113, 0.00, -26.40, -19.29, -22.91, -24.30, -15.51, -17.75, -22.87, -18.89, -23.36, -13.90, -23.76, -25.28, -24.72, -21.10, -17.99, 0.000, 0.000, 0.000, 11:22:58.663
114, 0.00, -26.40, -19.29, -22.91, -24.30, -15.51, -17.75, -22.87, -18.93, -23.56, -13.97, -23.94, -25.37, -24.77, -21.14, -17.95, 0.164, 0.830, 0.554, 11:22:58.669
115, 0.00, -26.35, -19.40, -22.98, -24.45, -15.53, -17.86, -22.87, -18.93, -23.56, -13.97, -23.94, -25.37, -24.77, -21.14, -17.95, 0.000, 0.000, 0.000, 11:22:58.676
116, 0.00, -26.35, -19.40, -22.98, -24.45, -15.53, -17.86, -22.87, -18.95, -23.40, -13.95, -24.12, -25.32, -24.90, -21.41, -18.31, 0.000, 0.000, 0.000, 11:22:58.676
117, 0.00, -26.40, -19.40, -23.00, -24.30, -15.51, -17.97, -22.73, -18.95, -23.40, -13.95, -24.12, -25.32, -24.90, -21.41, -18.31, 0.000, 0.000, 0.000, 11:22:58.681
118, 0.00, -26.40, -19.40, -23.00, -24.30, -15.51, -17.97, -22.73, -18.98, -23.51, -13.86, -23.94, -25.19, -24.86, -21.23, -18.06, 0.000, 0.000, 0.000, 11:22:58.687
119, 0.00, -26.35, -19.29, -22.73, -24.54, -15.40, -17.90, -22.87, -18.98, -23.51, -13.86, -23.94, -25.19, -24.86, -21.23, -18.06, 0.000, 0.000, 0.000, 11:22:58.687
120, 0.00, -26.35, -19.29, -22.73, -24.54, -15.40, -17.90, -22.87, -19.02, -23.34, -13.81, -24.01, -25.64, -24.74, -21.14, -17.72, 0.000, 0.000, 0.000, 11:22:58.692
121, 0.00, -26.33, -19.13, -22.75, -24.39, -15.65, -17.72, -22.84, -19.02, -23.34, -13.81, -24.01, -25.64, -24.74, -21.14, -17.72, 0.000, 0.000, 0.000, 11:22:58.697
122, 0.00, -26.33, -19.13, -22.75, -24.39, -15.65, -17.72, -22.84, -18.91, -23.34, -13.81, -23.92, -25.26, -24.68, -21.35, -17.90, 0.000, 0.000, 0.000, 11:22:58.698
123, 0.00, -26.22, -19.47, -22.73, -24.41, -15.65, -17.79, -22.69, -18.91, -23.34, -13.81, -23.92, -25.26, -24.68, -21.35, -17.90, 0.000, 0.000, 0.000, 11:22:58.707
124, 0.00, -26.22, -19.47, -22.73, -24.41, -15.65, -17.79, -22.69, -18.84, -23.47, -14.01, -23.92, -25.35, -24.63, -21.37, -18.04, 0.174, 0.820, 0.550, 11:22:58.708
125, 0.00, -26.20, -19.20, -22.78, -24.45, -15.53, -17.81, -22.82, -18.84, -23.47, -14.01, -23.92, -25.35, -24.63, -21.37, -18.04, 0.000, 0.000, 0.000, 11:22:58.713
126, 0.00, -26.20, -19.20, -22.78, -24.45, -15.53, -17.81, -22.82, -18.93, -23.45, -13.95, -24.18, -25.26, -24.77, -21.32, -18.02, 0.000, 0.000, 0.000, 11:22:58.718
127, 0.00, -26.24, -19.27, -22.87, -24.43, -15.56, -17.88, -22.69, -18.93, -23.45, -13.95, -24.18, -25.26, -24.77, -21.32, -18.02, 0.000, 0.000, 0.000, 11:22:58.719
128, 0.00, -26.24, -19.27, -22.87, -24.43, -15.56, -17.88, -22.69, -18.75, -23.27, -13.99, -23.83, -25.39, -24.79, -21.19, -17.86, 0.000, 0.000, 0.000, 11:22:58.722
129, 0.00, -26.26, -19.31, -22.66, -24.45, -15.60, -18.06, -22.82, -18.75, -23.27, -13.99, -23.83, -25.39, -24.79, -21.19, -17.86, 0.000, 0.000, 0.000, 11:22:58.728
130, 0.00, -26.26, -19.31, -22.66, -24.45, -15.60, -18.06, -22.82, -18.84, -23.40, -13.93, -24.03, -25.46, -24.88, -21.19, -18.15, 0.000, 0.000, 0.000, 11:22:58.733
131, 0.00, -26.13, -19.33, -22.58, -24.54, -15.58, -17.68, -22.62, -18.84, -23.40, -13.93, -24.03, -25.46, -24.88, -21.19, -18.15, 0.000, 0.000, 0.000, 11:22:58.740
132, 0.00, -26.13, -19.33, -22.58, -24.54, -15.58, -17.68, -22.62, -19.09, -23.38, -13.95, -24.07, -25.48, -24.90, -21.39, -18.17, 0.000, 0.000, 0.000, 11:22:58.741
133, 0.00, -26.17, -19.33, -22.84, -24.61, -15.42, -17.88, -22.78, -19.09, -23.38, -13.95, -24.07, -25.48, -24.90, -21.39, -18.17, 0.000, 0.000, 0.000, 11:22:58.741
134, 0.00, -26.17, -19.33, -22.84, -24.61, -15.42, -17.88, -22.78, -18.98, -23.51, -14.06, -23.98, -25.44, -24.88, -21.35, -18.15, 0.168, 0.792, 0.536, 11:22:58.752
135, 0.00, -26.31, -19.36, -22.73, -24.43, -15.40, -17.77, -22.55, -18.98, -23.51, -14.06, -23.98, -25.44, -24.88, -21.35, -18.15, 0.000, 0.000, 0.000, 11:22:58.752
136, 0.00, -26.31, -19.36, -22.73, -24.43, -15.40, -17.77, -22.55, -18.84, -23.54, -14.04, -23.83, -25.37, -24.74, -21.06, -18.15, 0.000, 0.000, 0.000, 11:22:58.758
137, 0.00, -26.29, -19.24, -22.75, -24.41, -15.69, -18.04, -22.62, -18.84, -23.54, -14.04, -23.83, -25.37, -24.74, -21.06, -18.15, 0.000, 0.000, 0.000, 11:22:58.758
138, 0.00, -26.29, -19.24, -22.75, -24.41, -15.69, -18.04, -22.62, -18.75, -23.38, -13.99, -23.74, -25.17, -24.65, -21.01, -18.06, 0.000, 0.000, 0.000, 11:22:58.763
139, 0.00, -26.24, -19.16, -22.89, -24.32, -15.65, -17.81, -22.78, -18.75, -23.38, -13.99, -23.74, -25.17, -24.65, -21.01, -18.06, 0.000, 0.000, 0.000, 11:22:58.770
140, 0.00, -26.24, -19.16, -22.89, -24.32, -15.65, -17.81, -22.78, -19.02, -23.47, -14.10, -24.01, -25.39, -24.79, -21.12, -18.02, 0.000, 0.000, 0.000, 11:22:58.771
141, 0.00, -26.26, -19.33, -22.91, -24.52, -15.58, -17.66, -22.96, -19.02, -23.47, -14.10, -24.01, -25.39, -24.79, -21.12, -18.02, 0.000, 0.000, 0.000, 11:22:58.776
142, 0.00, -26.26, -19.33, -22.91, -24.52, -15.58, -17.66, -22.96, -18.82, -23.42, -14.04, -24.01, -25.30, -24.79, -20.99, -18.08, 0.000, 0.000, 0.000, 11:22:58.782
143, 0.00, -26.22, -19.54, -22.91, -24.39, -15.58, -17.57, -22.64, -18.82, -23.42, -14.04, -24.01, -25.30, -24.79, -20.99, -18.08, 0.000, 0.000, 0.000, 11:22:58.782
144, 0.00, -26.22, -19.54, -22.91, -24.39, -15.58, -17.57, -22.64, -18.98, -23.47, -13.84, -23.98, -25.30, -24.77, -21.03, -18.02, 0.148, 0.788, 0.524, 11:22:58.788
145, 0.00, -26.35, -19.20, -22.84, -24.48, -15.40, -17.99, -22.89, -18.98, -23.47, -13.84, -23.98, -25.30, -24.77, -21.03, -18.02, 0.000, 0.000, 0.000, 11:22:58.794
146, 0.00, -26.35, -19.20, -22.84, -24.48, -15.40, -17.99, -22.89, -18.71, -23.36, -13.88, -23.94, -25.35, -24.70, -21.26, -18.10, 0.000, 0.000, 0.000, 11:22:58.804
147, 0.00, -26.13, -19.36, -23.00, -24.50, -15.51, -17.97, -22.73, -18.71, -23.36, -13.88, -23.94, -25.35, -24.70, -21.26, -18.10, 0.000, 0.000, 0.000, 11:22:58.806
148, 0.00, -26.13, -19.36, -23.00, -24.50, -15.51, -17.97, -22.73, -18.82, -23.42, -13.81, -23.65, -25.35, -24.92, -20.94, -18.08, 0.000, 0.000, 0.000, 11:22:58.806
149, 0.00, -26.11, -19.33, -22.66, -24.59, -15.53, -17.79, -22.78, -18.82, -23.42, -13.81, -23.65, -25.35, -24.92, -20.94, -18.08, 0.000, 0.000, 0.000, 11:22:58.806
150, 0.00, -26.11, -19.33, -22.66, -24.59, -15.53, -17.79, -22.78, -18.89, -23.38, -13.81, -23.87, -25.37, -24.77, -21.12, -18.02, 0.000, 0.000, 0.000, 11:22:58.814
151, 0.00, -26.11, -19.33, -22.69, -24.50, -15.53, -17.84, -22.82, -18.89, -23.38, -13.81, -23.87, -25.37, -24.77, -21.12, -18.02, 0.000, 0.000, 0.000, 11:22:58.814
152, 0.00, -26.11, -19.33, -22.69, -24.50, -15.53, -17.84, -22.82, -18.91, -23.45, -13.81, -24.03, -25.48, -24.77, -21.10, -17.86, 0.000, 0.000, 0.000, 11:22:58.819
153, 0.00, -26.31, -19.31, -22.87, -24.56, -15.29, -18.04, -22.82, -18.91, -23.45, -13.81, -24.03, -25.48, -24.77, -21.10, -17.86, 0.000, 0.000, 0.000, 11:22:58.825
154, 0.00, -26.31, -19.31, -22.87, -24.56, -15.29, -18.04, -22.82, -19.00, -23.34, -13.90, -23.87, -25.26, -24.74, -21.01, -17.93, 0.124, 0.796, 0.516, 11:22:58.826
155, 0.00, -26.29, -19.22, -22.78, -24.61, -15.56, -17.70, -22.80, -19.00, -23.34, -13.90, -23.87, -25.26, -24.74, -21.01, -17.93, 0.000, 0.000, 0.000, 11:22:58.833
156, 0.00, -26.29, -19.22, -22.78, -24.61, -15.56, -17.70, -22.80, -18.80, -23.58, -13.93, -24.05, -25.41, -24.99, -21.19, -17.88, 0.000, 0.000, 0.000, 11:22:58.834
157, 0.00, -26.15, -19.36, -22.84, -24.59, -15.42, -17.81, -22.73, -18.80, -23.58, -13.93, -24.05, -25.41, -24.99, -21.19, -17.88, 0.000, 0.000, 0.000, 11:22:58.840
158, 0.00, -26.15, -19.36, -22.84, -24.59, -15.42, -17.81, -22.73, -18.78, -23.40, -13.75, -23.83, -25.28, -24.74, -21.03, -18.22, 0.000, 0.000, 0.000, 11:22:58.846
159, 0.00, -26.22, -19.24, -22.71, -24.54, -15.45, -17.88, -22.42, -18.78, -23.40, -13.75, -23.83, -25.28, -24.74, -21.03, -18.22, 0.000, 0.000, 0.000, 11:22:58.846
160, 0.00, -26.22, -19.24, -22.71, -24.54, -15.45, -17.88, -22.42, -18.80, -23.47, -13.77, -23.78, -25.57, -24.63, -21.12, -18.19, 0.000, 0.000, 0.000, 11:22:58.853
161, 0.00, -26.29, -19.36, -22.84, -24.68, -15.42, -17.77, -22.53, -18.80, -23.47, -13.77, -23.78, -25.57, -24.63, -21.12, -18.19, 0.000, 0.000, 0.000, 11:22:58.854
162, 0.00, -26.29, -19.36, -22.84, -24.68, -15.42, -17.77, -22.53, -18.86, -23.67, -14.24, -23.96, -25.62, -24.48, -20.97, -17.97, 0.000, 0.000, 0.000, 11:22:58.860
163, 0.00, -26.38, -19.31, -22.66, -24.14, -15.42, -17.77, -22.80, -18.86, -23.67, -14.24, -23.96, -25.62, -24.48, -20.97, -17.97, 0.000, 0.000, 0.000, 11:22:58.865
164, 0.00, -26.38, -19.31, -22.66, -24.14, -15.42, -17.77, -22.80, -18.84, -23.72, -14.19, -24.01, -25.53, -24.74, -21.14, -17.88, 0.118, 0.822, 0.516, 11:22:58.865
165, 0.00, -26.40, -19.33, -22.78, -24.25, -15.38, -17.75, -22.80, -18.84, -23.72, -14.19, -24.01, -25.53, -24.74, -21.14, -17.88, 0.000, 0.000, 0.000, 11:22:58.870
166, 0.00, -26.40, -19.33, -22.78, -24.25, -15.38, -17.75, -22.80, -18.91, -23.49, -13.93, -24.10, -25.19, -24.50, -21.12, -18.13, 0.000, 0.000, 0.000, 11:22:58.875
167, 0.00, -26.31, -19.51, -22.64, -24.41, -15.51, -17.77, -22.73, -18.91, -23.49, -13.93, -24.10, -25.19, -24.50, -21.12, -18.13, 0.000, 0.000, 0.000, 11:22:58.880
168, 0.00, -26.31, -19.51, -22.64, -24.41, -15.51, -17.77, -22.73, -19.00, -23.63, -13.95, -23.96, -25.55, -24.72, -21.37, -17.75, 0.000, 0.000, 0.000, 11:22:58.885
169, 0.00, -26.26, -19.13, -22.78, -24.52, -15.69, -17.95, -22.66, -19.00, -23.63, -13.95, -23.96, -25.55, -24.72, -21.37, -17.75, 0.000, 0.000, 0.000, 11:22:58.885
170, 0.00, -26.26, -19.13, -22.78, -24.52, -15.69, -17.95, -22.66, -18.91, -23.51, -13.93, -23.98, -25.39, -24.83, -21.30, -17.93, 0.000, 0.000, 0.000, 11:22:58.890
171, 0.00, -26.29, -19.33, -22.71, -24.48, -15.60, -18.13, -22.53, -18.91, -23.51, -13.93, -23.98, -25.39, -24.83, -21.30, -17.93, 0.000, 0.000, 0.000, 11:22:58.895
172, 0.00, -26.29, -19.33, -22.71, -24.48, -15.60, -18.13, -22.53, -18.95, -23.58, -13.90, -23.96, -25.37, -24.72, -21.14, -18.04, 0.000, 0.000, 0.000, 11:22:58.900
173, 0.00, -26.31, -19.22, -22.69, -24.36, -15.49, -17.95, -22.84, -18.95, -23.58, -13.90, -23.96, -25.37, -24.72, -21.14, -18.04, 0.132, 0.832, 0.524, 11:22:58.905
174, 0.00, -26.31, -19.22, -22.69, -24.36, -15.49, -17.95, -22.84, -18.86, -23.56, -13.99, -23.89, -25.35, -24.92, -21.01, -18.13, 0.000, 0.000, 0.000, 11:22:58.906
175, 0.00, -26.22, -19.18, -22.69, -24.48, -15.58, -17.86, -22.69, -18.86, -23.56, -13.99, -23.89, -25.35, -24.92, -21.01, -18.13, 0.000, 0.000, 0.000, 11:22:58.911
176, 0.00, -26.22, -19.18, -22.69, -24.48, -15.58, -17.86, -22.69, -18.73, -23.54, -14.08, -23.85, -25.21, -24.97, -21.08, -18.08, 0.000, 0.000, 0.000, 11:22:58.917
177, 0.00, -26.49, -19.36, -22.87, -24.45, -15.58, -17.86, -22.60, -18.73, -23.54, -14.08, -23.85, -25.21, -24.97, -21.08, -18.08, 0.000, 0.000, 0.000, 11:22:58.917
178, 0.00, -26.49, -19.36, -22.87, -24.45, -15.58, -17.86, -22.60, -18.84, -23.27, -13.99, -23.89, -25.35, -24.74, -21.14, -17.95, 0.000, 0.000, 0.000, 11:22:58.925
179, 0.00, -26.02, -19.38, -22.73, -24.45, -15.62, -17.81, -22.87, -18.84, -23.27, -13.99, -23.89, -25.35, -24.74, -21.14, -17.95, 0.000, 0.000, 0.000, 11:22:58.931
180, 0.00, -26.02, -19.38, -22.73, -24.45, -15.62, -17.81, -22.87, -18.93, -23.54, -14.13, -23.96, -25.21, -24.61, -21.01, -17.99, 0.000, 0.000, 0.000, 11:22:58.931
181, 0.00, -26.33, -19.24, -22.80, -24.43, -15.56, -17.95, -22.75, -18.93, -23.54, -14.13, -23.96, -25.21, -24.61, -21.01, -17.99, 0.000, 0.000, 0.000, 11:22:58.937
182, 0.00, -26.33, -19.24, -22.80, -24.43, -15.56, -17.95, -22.75, -18.89, -23.42, -14.04, -24.14, -25.08, -24.79, -21.28, -18.04, 0.000, 0.000, 0.000, 11:22:58.937
183, 0.00, -26.20, -19.20, -22.73, -24.36, -15.51, -17.75, -22.78, -18.89, -23.42, -14.04, -24.14, -25.08, -24.79, -21.28, -18.04, 0.162, 0.836, 0.538, 11:22:58.942
184, 0.00, -26.20, -19.20, -22.73, -24.36, -15.51, -17.75, -22.78, -18.98, -23.51, -13.90, -24.07, -25.26, -24.77, -21.28, -18.10, 0.000, 0.000, 0.000, 11:22:58.947
185, 0.00, -26.20, -19.02, -22.75, -24.59, -15.31, -17.84, -22.91, -18.98, -23.51, -13.90, -24.07, -25.26, -24.77, -21.28, -18.10, 0.000, 0.000, 0.000, 11:22:58.953
186, 0.00, -26.20, -19.02, -22.75, -24.59, -15.31, -17.84, -22.91, -18.75, -23.47, -13.95, -23.89, -25.44, -24.99, -21.14, -18.10, 0.000, 0.000, 0.000, 11:22:58.959
187, 0.00, -26.22, -19.31, -22.78, -24.48, -15.53, -17.97, -22.58, -18.75, -23.47, -13.95, -23.89, -25.44, -24.99, -21.14, -18.10, 0.000, 0.000, 0.000, 11:22:58.959
188, 0.00, -26.22, -19.31, -22.78, -24.48, -15.53, -17.97, -22.58, -18.75, -23.42, -13.97, -23.78, -25.46, -24.92, -21.08, -18.13, 0.000, 0.000, 0.000, 11:22:58.965
189, 0.00, -26.44, -19.22, -22.89, -24.34, -15.76, -17.97, -22.91, -18.75, -23.42, -13.97, -23.78, -25.46, -24.92, -21.08, -18.13, 0.000, 0.000, 0.000, 11:22:58.965
190, 0.00, -26.44, -19.22, -22.89, -24.34, -15.76, -17.97, -22.91, -18.91, -23.36, -13.99, -23.96, -25.24, -24.83, -21.19, -18.04, 0.000, 0.000, 0.000, 11:22:58.970
191, 0.00, -26.42, -19.11, -22.98, -24.50, -15.31, -17.79, -22.96, -18.91, -23.36, -13.99, -23.96, -25.24, -24.83, -21.19, -18.04, 0.000, 0.000, 0.000, 11:22:58.978
192, 0.00, -26.42, -19.11, -22.98, -24.50, -15.31, -17.79, -22.96, -18.91, -23.49, -13.97, -24.03, -25.35, -24.90, -21.19, -18.13, 0.000, 0.000, 0.000, 11:22:58.978
193, 0.00, -26.35, -19.20, -22.71, -24.21, -15.51, -17.88, -22.75, -18.91, -23.49, -13.97, -24.03, -25.35, -24.90, -21.19, -18.13, 0.184, 0.828, 0.550, 11:22:58.984
194, 0.00, -26.35, -19.20, -22.71, -24.21, -15.51, -17.88, -22.75, -18.82, -23.54, -13.95, -24.10, -25.24, -24.74, -21.30, -17.95, 0.000, 0.000, 0.000, 11:22:58.989
195, 0.00, -26.35, -19.33, -22.82, -24.30, -15.24, -17.75, -22.62, -18.82, -23.54, -13.95, -24.10, -25.24, -24.74, -21.30, -17.95, 0.000, 0.000, 0.000, 11:22:58.989
196, 0.00, -26.35, -19.33, -22.82, -24.30, -15.24, -17.75, -22.62, -18.89, -23.34, -13.84, -24.14, -25.39, -24.88, -21.26, -18.06, 0.000, 0.000, 0.000, 11:22:58.997
197, 0.00, -26.06, -19.07, -22.87, -24.52, -15.51, -17.97, -22.42, -18.89, -23.34, -13.84, -24.14, -25.39, -24.88, -21.26, -18.06, 0.000, 0.000, 0.000, 11:22:58.997
198, 0.00, -26.06, -19.07, -22.87, -24.52, -15.51, -17.97, -22.42, -18.93, -23.07, -13.99, -24.10, -25.55, -24.90, -21.23, -17.99, 0.000, 0.000, 0.000, 11:22:59.005
199, 0.00, -26.13, -19.04, -22.87, -24.45, -15.42, -17.81, -22.89, -18.93, -23.07, -13.99, -24.10, -25.55, -24.90, -21.23, -17.99, 0.000, 0.000, 0.000, 11:22:59.005
200, 0.00, -26.13, -19.04, -22.87, -24.45, -15.42, -17.81, -22.89, -18.84, -23.45, -14.01, -23.94, -25.30, -25.01, -21.19, -18.19, 0.000, 0.000, 0.000, 11:22:59.016
201, 0.00, -26.35, -19.18, -22.80, -24.36, -15.60, -17.79, -22.64, -18.84, -23.45, -14.01, -23.94, -25.30, -25.01, -21.19, -18.19, 0.000, 0.000, 0.000, 11:22:59.016
202, 0.00, -26.35, -19.18, -22.80, -24.36, -15.60, -17.79, -22.64, -18.86, -23.51, -13.93, -24.01, -25.35, -24.77, -21.17, -18.06, 0.000, 0.000, 0.000, 11:22:59.022
203, 0.00, -26.42, -19.22, -22.84, -24.32, -15.40, -17.90, -22.71, -18.86, -23.51, -13.93, -24.01, -25.35, -24.77, -21.17, -18.06, 0.184, 0.820, 0.556, 11:22:59.022
204, 0.00, -26.42, -19.22, -22.84, -24.32, -15.40, -17.90, -22.71, -19.04, -23.56, -13.84, -24.25, -25.48, -24.83, -21.17, -18.22, 0.000, 0.000, 0.000, 11:22:59.029
205, 0.00, -26.04, -19.18, -22.82, -24.45, -15.49, -17.86, -22.69, -19.04, -23.56, -13.84, -24.25, -25.48, -24.83, -21.17, -18.22, 0.000, 0.000, 0.000, 11:22:59.029
206, 0.00, -26.04, -19.18, -22.82, -24.45, -15.49, -17.86, -22.69, -18.86, -23.80, -13.79, -24.03, -25.35, -24.74, -21.37, -18.15, 0.000, 0.000, 0.000, 11:22:59.035
207, 0.00, -26.15, -19.29, -22.91, -24.30, -15.51, -17.93, -22.58, -18.86, -23.80, -13.79, -24.03, -25.35, -24.74, -21.37, -18.15, 0.000, 0.000, 0.000, 11:22:59.040
208, 0.00, -26.15, -19.29, -22.91, -24.30, -15.51, -17.93, -22.58, -18.91, -23.36, -14.15, -24.10, -25.57, -24.83, -21.28, -17.90, 0.000, 0.000, 0.000, 11:22:59.040
209, 0.00, -26.22, -19.18, -22.93, -24.32, -15.47, -17.75, -22.62, -18.91, -23.36, -14.15, -24.10, -25.57, -24.83, -21.28, -17.90, 0.000, 0.000, 0.000, 11:22:59.046
210, 0.00, -26.22, -19.18, -22.93, -24.32, -15.47, -17.75, -22.62, -18.78, -23.47, -14.01, -24.05, -25.28, -24.59, -21.19, -17.97, 0.000, 0.000, 0.000, 11:22:59.051
211, 0.00, -26.42, -19.20, -22.73, -24.36, -15.67, -17.93, -22.84, -18.78, -23.47, -14.01, -24.05, -25.28, -24.59, -21.19, -17.97, 0.000, 0.000, 0.000, 11:22:59.056
212, 0.00, -26.42, -19.20, -22.73, -24.36, -15.67, -17.93, -22.84, -18.95, -23.58, -13.93, -23.74, -25.39, -24.72, -21.14, -18.08, 0.000, 0.000, 0.000, 11:22:59.061
213, 0.00, -26.40, -19.36, -22.58, -24.25, -15.53, -17.95, -22.58, -18.95, -23.58, -13.93, -23.74, -25.39, -24.72, -21.14, -18.08, 0.164, 0.820, 0.544, 11:22:59.066
214, 0.00, -26.40, -19.36, -22.58, -24.25, -15.53, -17.95, -22.58, -19.02, -23.38, -13.90, -23.89, -25.57, -25.06, -21.19, -18.08, 0.000, 0.000, 0.000, 11:22:59.066
215, 0.00, -26.31, -19.51, -22.91, -24.56, -15.60, -17.79, -22.60, -19.02, -23.38, -13.90, -23.89, -25.57, -25.06, -21.19, -18.08, 0.000, 0.000, 0.000, 11:22:59.071
216, 0.00, -26.31, -19.51, -22.91, -24.56, -15.60, -17.79, -22.60, -18.95, -23.67, -13.93, -23.98, -25.32, -24.83, -21.23, -18.02, 0.000, 0.000, 0.000, 11:22:59.076
217, 0.00, -26.22, -19.18, -22.69, -24.50, -15.42, -17.90, -22.66, -18.95, -23.67, -13.93, -23.98, -25.32, -24.83, -21.23, -18.02, 0.000, 0.000, 0.000, 11:22:59.081
218, 0.00, -26.22, -19.18, -22.69, -24.50, -15.42, -17.90, -22.66, -18.95, -23.40, -13.86, -24.05, -25.32, -24.68, -21.17, -17.93, 0.000, 0.000, 0.000, 11:22:59.081
219, 0.00, -26.29, -19.38, -22.91, -24.61, -15.45, -17.97, -22.66, -18.95, -23.40, -13.86, -24.05, -25.32, -24.68, -21.17, -17.93, 0.000, 0.000, 0.000, 11:22:59.087
220, 0.00, -26.29, -19.38, -22.91, -24.61, -15.45, -17.97, -22.66, -18.86, -23.72, -13.88, -23.87, -25.57, -24.65, -21.08, -18.06, 0.000, 0.000, 0.000, 11:22:59.094
221, 0.00, -26.15, -19.40, -22.91, -24.48, -15.74, -17.88, -22.66, -18.86, -23.72, -13.88, -23.87, -25.57, -24.65, -21.08, -18.06, 0.000, 0.000, 0.000, 11:22:59.094
222, 0.00, -26.15, -19.40, -22.91, -24.48, -15.74, -17.88, -22.66, -18.91, -23.54, -14.04, -23.83, -25.41, -24.77, -21.01, -18.02, 0.000, 0.000, 0.000, 11:22:59.100
223, 0.00, -26.40, -19.27, -22.93, -24.45, -15.51, -17.88, -22.75, -18.91, -23.54, -14.04, -23.83, -25.41, -24.77, -21.01, -18.02, 0.146, 0.808, 0.538, 11:22:59.106
224, 0.00, -26.40, -19.27, -22.93, -24.45, -15.51, -17.88, -22.75, -18.75, -23.31, -13.81, -24.05, -25.37, -24.65, -21.01, -18.10, 0.000, 0.000, 0.000, 11:22:59.106
225, 0.00, -26.31, -19.47, -22.87, -24.45, -15.42, -17.79, -22.80, -18.75, -23.31, -13.81, -24.05, -25.37, -24.65, -21.01, -18.10, 0.000, 0.000, 0.000, 11:22:59.111
226, 0.00, -26.31, -19.47, -22.87, -24.45, -15.42, -17.79, -22.80, -18.84, -23.54, -13.81, -23.96, -25.41, -25.06, -21.26, -17.97, 0.000, 0.000, 0.000, 11:22:59.117
227, 0.00, -26.08, -19.33, -22.66, -24.52, -15.56, -17.97, -22.82, -18.84, -23.54, -13.81, -23.96, -25.41, -25.06, -21.26, -17.97, 0.000, 0.000, 0.000, 11:22:59.117
228, 0.00, -26.08, -19.33, -22.66, -24.52, -15.56, -17.97, -22.82, -18.73, -23.72, -13.88, -24.14, -25.35, -24.77, -21.17, -18.24, 0.000, 0.000, 0.000, 11:22:59.123
229, 0.00, -26.04, -19.40, -22.82, -24.50, -15.40, -17.99, -22.84, -18.73, -23.72, -13.88, -24.14, -25.35, -24.77, -21.17, -18.24, 0.000, 0.000, 0.000, 11:22:59.128
230, 0.00, -26.04, -19.40, -22.82, -24.50, -15.40, -17.99, -22.84, -18.93, -23.47, -13.99, -23.89, -25.28, -24.68, -21.37, -18.22, 0.000, 0.000, 0.000, 11:22:59.136
231, 0.00, -26.22, -19.22, -22.78, -24.27, -15.49, -17.84, -22.80, -18.93, -23.47, -13.99, -23.89, -25.28, -24.68, -21.37, -18.22, 0.000, 0.000, 0.000, 11:22:59.136
232, 0.00, -26.22, -19.22, -22.78, -24.27, -15.49, -17.84, -22.80, -18.98, -23.36, -13.77, -23.92, -25.57, -24.72, -21.28, -18.15, 0.000, 0.000, 0.000, 11:22:59.142
233, 0.00, -26.35, -19.22, -22.64, -24.39, -15.67, -18.13, -22.62, -18.98, -23.36, -13.77, -23.92, -25.57, -24.72, -21.28, -18.15, 0.130, 0.778, 0.534, 11:22:59.142
234, 0.00, -26.35, -19.22, -22.64, -24.39, -15.67, -18.13, -22.62, -18.75, -23.54, -14.01, -23.94, -25.19, -24.63, -21.30, -18.02, 0.000, 0.000, 0.000, 11:22:59.151
235, 0.00, -26.04, -19.07, -22.82, -24.50, -15.51, -18.02, -22.73, -18.75, -23.54, -14.01, -23.94, -25.19, -24.63, -21.30, -18.02, 0.000, 0.000, 0.000, 11:22:59.151
236, 0.00, -26.04, -19.07, -22.82, -24.50, -15.51, -18.02, -22.73, -19.22, -23.42, -13.97, -24.01, -25.32, -24.65, -21.19, -17.90, 0.000, 0.000, 0.000, 11:22:59.158
237, 0.00, -26.17, -19.40, -22.87, -24.56, -15.49, -17.93, -22.73, -19.22, -23.42, -13.97, -24.01, -25.32, -24.65, -21.19, -17.90, 0.000, 0.000, 0.000, 11:22:59.158
238, 0.00, -26.17, -19.40, -22.87, -24.56, -15.49, -17.93, -22.73, -18.98, -23.69, -13.84, -24.01, -25.26, -24.79, -21.32, -18.04, 0.000, 0.000, 0.000, 11:22:59.164
239, 0.00, -26.22, -19.31, -22.66, -24.34, -15.58, -17.93, -22.69, -18.98, -23.69, -13.84, -24.01, -25.26, -24.79, -21.32, -18.04, 0.000, 0.000, 0.000, 11:22:59.171
240, 0.00, -26.22, -19.31, -22.66, -24.34, -15.58, -17.93, -22.69, -18.86, -23.58, -14.06, -23.89, -25.26, -24.88, -21.26, -17.93, 0.000, 0.000, 0.000, 11:22:59.171
241, 0.00, -26.24, -19.24, -22.78, -24.56, -15.40, -17.72, -22.58, -18.86, -23.58, -14.06, -23.89, -25.26, -24.88, -21.26, -17.93, 0.000, 0.000, 0.000, 11:22:59.177
242, 0.00, -26.24, -19.24, -22.78, -24.56, -15.40, -17.72, -22.58, -19.02, -23.42, -13.93, -23.85, -25.39, -24.86, -21.37, -18.33, 0.114, 0.780, 0.518, 11:22:59.177
243, 0.00, -26.49, -19.33, -22.75, -24.27, -15.65, -18.08, -22.69, -19.02, -23.42, -13.93, -23.85, -25.39, -24.86, -21.37, -18.33, 0.000, 0.000, 0.000, 11:22:59.184
244, 0.00, -26.49, -19.33, -22.75, -24.27, -15.65, -18.08, -22.69, -18.86, -23.34, -14.06, -23.94, -25.39, -24.63, -20.97, -18.26, 0.000, 0.000, 0.000, 11:22:59.190
245, 0.00, -26.22, -19.29, -22.73, -24.41, -15.53, -17.81, -22.62, -18.86, -23.34, -14.06, -23.94, -25.39, -24.63, -20.97, -18.26, 0.000, 0.000, 0.000, 11:22:59.190
246, 0.00, -26.22, -19.29, -22.73, -24.41, -15.53, -17.81, -22.62, -18.82, -23.47, -14.01, -24.01, -25.41, -24.88, -21.08, -18.02, 0.000, 0.000, 0.000, 11:22:59.196
247, 0.00, -26.06, -19.11, -22.84, -24.27, -15.51, -17.99, -22.66, -18.82, -23.47, -14.01, -24.01, -25.41, -24.88, -21.08, -18.02, 0.000, 0.000, 0.000, 11:22:59.203
248, 0.00, -26.06, -19.11, -22.84, -24.27, -15.51, -17.99, -22.66, -19.00, -23.40, -14.19, -23.96, -25.28, -24.70, -21.21, -18.08, 0.000, 0.000, 0.000, 11:22:59.203
249, 0.00, -26.38, -19.20, -23.02, -24.32, -15.58, -17.72, -22.80, -19.00, -23.40, -14.19, -23.96, -25.28, -24.70, -21.21, -18.08, 0.000, 0.000, 0.000, 11:22:59.208
250, 0.00, -26.38, -19.20, -23.02, -24.32, -15.58, -17.72, -22.80, -18.98, -23.34, -13.72, -23.60, -25.35, -24.48, -20.92, -18.15, 0.000, 0.000, 0.000, 11:22:59.212
251, 0.00, -26.49, -19.24, -22.69, -24.36, -15.51, -17.61, -22.69, -18.98, -23.34, -13.72, -23.60, -25.35, -24.48, -20.92, -18.15, 0.000, 0.000, 0.000, 11:22:59.213
252, 0.00, -26.49, -19.24, -22.69, -24.36, -15.51, -17.61, -22.69, -19.00, -23.27, -13.88, -23.92, -25.21, -24.68, -21.26, -17.86, 0.106, 0.818, 0.516, 11:22:59.219
253, 0.00, -26.31, -19.49, -22.98, -24.48, -15.62, -17.70, -22.69, -19.00, -23.27, -13.88, -23.92, -25.21, -24.68, -21.26, -17.86, 0.000, 0.000, 0.000, 11:22:59.224
254, 0.00, -26.31, -19.49, -22.98, -24.48, -15.62, -17.70, -22.69, -19.00, -23.51, -14.06, -23.92, -25.44, -24.81, -21.32, -17.81, 0.000, 0.000, 0.000, 11:22:59.229
255, 0.00, -26.35, -19.13, -22.87, -24.32, -15.29, -17.75, -22.69, -19.00, -23.51, -14.06, -23.92, -25.44, -24.81, -21.32, -17.81, 0.000, 0.000, 0.000, 11:22:59.229
0, 0.00, -26.35, -19.13, -22.87, -24.32, -15.29, -17.75, -22.69, -18.98, -23.51, -13.93, -23.87, -25.50, -24.70, -21.08, -17.95, 0.000, 0.000, 0.000, 11:22:59.234
1, 0.00, -26.24, -19.47, -22.66, -24.32, -15.58, -17.93, -22.46, -18.98, -23.51, -13.93, -23.87, -25.50, -24.70, -21.08, -17.95, 0.000, 0.000, 0.000, 11:22:59.239
2, 0.00, -26.24, -19.47, -22.66, -24.32, -15.58, -17.93, -22.46, -18.93, -23.54, -14.06, -23.85, -25.35, -24.83, -21.08, -17.88, 0.000, 0.000, 0.000, 11:22:59.245
3, 0.00, -26.17, -19.29, -22.82, -24.36, -15.27, -18.02, -22.58, -18.93, -23.54, -14.06, -23.85, -25.35, -24.83, -21.08, -17.88, 0.000, 0.000, 0.000, 11:22:59.245
4, 0.00, -26.17, -19.29, -22.82, -24.36, -15.27, -18.02, -22.58, -18.98, -23.51, -13.79, -23.96, -25.19, -24.86, -21.30, -17.99, 0.000, 0.000, 0.000, 11:22:59.251
5, 0.00, -26.31, -19.31, -22.78, -24.21, -15.53, -18.02, -22.73, -18.98, -23.51, -13.79, -23.96, -25.19, -24.86, -21.30, -17.99, 0.000, 0.000, 0.000, 11:22:59.259
6, 0.00, -26.31, -19.31, -22.78, -24.21, -15.53, -18.02, -22.73, -18.82, -23.49, -13.79, -23.80, -25.26, -24.72, -21.12, -17.84, 0.104, 0.852, 0.528, 11:22:59.259
7, 0.00, -26.29, -19.18, -22.75, -24.27, -15.62, -18.04, -22.53, -18.82, -23.49, -13.79, -23.80, -25.26, -24.72, -21.12, -17.84, 0.000, 0.000, 0.000, 11:22:59.264
