%OpenBCI Raw EEG Data
%
%Sample Rate = 250.0 Hz
%First Column = SampleIndex
%Last Column = Timestamp 
%Other Columns = EEG data in microvolts followed by Accel Data (in G) interleaved with Aux Data
0, 0.00, 0.00, 0.00, 0.00, 0.00, 0.00, 0.00, 0.00, -3306.45, -3249.30, -3346.32, -3227.84, -44962.23, -43893.15, -49451.20, -68004.55, 0.014, 0.940, 0.272, 03:57:16.070
0, 0.00, 0.00, 0.00, 0.00, 0.00, 0.00, 0.00, 0.00, -19.02, -23.25, -13.90, -24.10, -25.35, -24.72, -21.17, -17.99, 0.024, 0.936, 0.284, 03:57:16.091
1, -20.72, -26.49, -18.66, -21.88, -25.06, -14.98, -16.88, -22.20, -19.02, -23.25, -13.90, -24.10, -25.35, -24.72, -21.17, -17.99, 0.000, 0.000, 0.000, 03:57:16.095
2, -20.72, -26.49, -18.66, -21.88, -25.06, -14.98, -16.88, -22.20, -18.89, -23.45, -14.01, -23.89, -25.35, -24.88, -21.19, -18.02, 0.000, 0.000, 0.000, 03:57:16.098
3, -20.56, -26.73, -18.37, -21.95, -25.08, -14.77, -16.83, -22.11, -18.89, -23.45, -14.01, -23.89, -25.35, -24.88, -21.19, -18.02, 0.000, 0.000, 0.000, 03:57:16.103
4, -20.56, -26.73, -18.37, -21.95, -25.08, -14.77, -16.83, -22.11, -18.69, -23.47, -14.01, -23.92, -25.39, -24.77, -21.19, -18.24, 0.000, 0.000, 0.000, 03:57:16.107
5, -20.56, -26.55, -18.66, -22.13, -24.92, -14.75, -16.65, -22.26, -18.69, -23.47, -14.01, -23.92, -25.39, -24.77, -21.19, -18.24, 0.000, 0.000, 0.000, 03:57:16.109
6, -20.56, -26.55, -18.66, -22.13, -24.92, -14.75, -16.65, -22.26, -18.78, -23.42, -13.93, -23.98, -25.37, -24.83, -21.19, -18.13, 0.000, 0.000, 0.000, 03:57:16.115
7, -20.74, -26.67, -18.53, -22.20, -24.92, -14.73, -16.65, -21.99, -18.78, -23.42, -13.93, -23.98, -25.37, -24.83, -21.19, -18.13, 0.026, 0.938, 0.282, 03:57:16.119
8, -20.74, -26.67, -18.53, -22.20, -24.92, -14.73, -16.65, -21.99, -18.93, -23.40, -13.77, -23.85, -25.41, -24.77, -21.03, -18.06, 0.000, 0.000, 0.000, 03:57:16.123
9, -20.83, -26.55, -18.48, -22.20, -24.83, -15.02, -16.63, -21.99, -18.93, -23.40, -13.77, -23.85, -25.41, -24.77, -21.03, -18.06, 0.000, 0.000, 0.000, 03:57:16.127
10, -20.83, -26.55, -18.48, -22.20, -24.83, -15.02, -16.63, -21.99, -18.75, -23.34, -13.88, -23.94, -25.28, -24.86, -21.26, -17.97, 0.000, 0.000, 0.000, 03:57:16.131
11, -20.76, -26.67, -18.46, -22.11, -24.97, -14.89, -16.58, -21.90, -18.75, -23.34, -13.88, -23.94, -25.28, -24.86, -21.26, -17.97, 0.000, 0.000, 0.000, 03:57:16.135
12, -20.76, -26.67, -18.46, -22.11, -24.97, -14.89, -16.58, -21.90, -18.84, -23.42, -13.81, -23.78, -25.28, -24.88, -21.23, -18.04, 0.000, 0.000, 0.000, 03:57:16.137
13, -20.70, -26.40, -18.42, -21.95, -24.90, -14.86, -16.52, -22.06, -18.84, -23.42, -13.81, -23.78, -25.28, -24.88, -21.23, -18.04, 0.000, 0.000, 0.000, 03:57:16.143
14, -20.70, -26.40, -18.42, -21.95, -24.90, -14.86, -16.52, -22.06, -18.91, -23.56, -14.01, -23.65, -25.19, -25.01, -21.17, -18.10, 0.000, 0.000, 0.000, 03:57:16.147
15, -20.76, -26.35, -18.53, -22.11, -25.03, -14.98, -16.61, -22.02, -18.91, -23.56, -14.01, -23.65, -25.19, -25.01, -21.17, -18.10, 0.000, 0.000, 0.000, 03:57:16.150
16, -20.76, -26.35, -18.53, -22.11, -25.03, -14.98, -16.61, -22.02, -18.86, -23.63, -13.77, -24.05, -25.30, -24.72, -21.14, -18.08, 0.000, 0.000, 0.000, 03:57:16.155
17, -20.76, -26.42, -18.46, -21.93, -24.99, -15.07, -16.74, -22.20, -18.86, -23.63, -13.77, -24.05, -25.30, -24.72, -21.14, -18.08, 0.010, 0.938, 0.280, 03:57:16.158
18, -20.76, -26.42, -18.46, -21.93, -24.99, -15.07, -16.74, -22.20, -19.02, -23.49, -13.77, -24.03, -25.28, -24.86, -21.17, -18.13, 0.000, 0.000, 0.000, 03:57:16.163
19, -20.65, -26.78, -18.55, -22.13, -24.86, -15.04, -16.65, -22.04, -19.02, -23.49, -13.77, -24.03, -25.28, -24.86, -21.17, -18.13, 0.000, 0.000, 0.000, 03:57:16.166
20, -20.65, -26.78, -18.55, -22.13, -24.86, -15.04, -16.65, -22.04, -18.82, -23.58, -13.79, -24.03, -25.17, -24.88, -21.23, -17.97, 0.000, 0.000, 0.000, 03:57:16.170
21, -21.01, -26.49, -18.55, -22.26, -24.94, -14.93, -16.61, -22.22, -18.82, -23.58, -13.79, -24.03, -25.17, -24.88, -21.23, -17.97, 0.000, 0.000, 0.000, 03:57:16.175
22, -21.01, -26.49, -18.55, -22.26, -24.94, -14.93, -16.61, -22.22, -19.00, -23.38, -13.99, -24.16, -25.32, -24.77, -21.12, -18.22, 0.000, 0.000, 0.000, 03:57:16.179
23, -20.65, -26.62, -18.46, -22.17, -24.97, -15.09, -16.83, -22.35, -19.00, -23.38, -13.99, -24.16, -25.32, -24.77, -21.12, -18.22, 0.000, 0.000, 0.000, 03:57:16.183
24, -20.65, -26.62, -18.46, -22.17, -24.97, -15.09, -16.83, -22.35, -18.86, -23.51, -13.84, -24.10, -25.62, -24.63, -21.21, -18.15, 0.000, 0.000, 0.000, 03:57:16.187
25, -20.72, -26.78, -18.44, -22.06, -24.94, -14.82, -16.41, -22.13, -18.86, -23.51, -13.84, -24.10, -25.62, -24.63, -21.21, -18.15, 0.000, 0.000, 0.000, 03:57:16.189
26, -20.72, -26.78, -18.44, -22.06, -24.94, -14.82, -16.41, -22.13, -18.84, -23.54, -13.72, -24.10, -25.32, -24.72, -21.50, -17.95, 0.018, 0.944, 0.292, 03:57:16.194
27, -20.94, -26.71, -18.46, -21.97, -24.79, -14.71, -16.52, -21.95, -18.84, -23.54, -13.72, -24.10, -25.32, -24.72, -21.50, -17.95, 0.000, 0.000, 0.000, 03:57:16.199
28, -20.94, -26.71, -18.46, -21.97, -24.79, -14.71, -16.52, -21.95, -18.95, -23.76, -13.70, -24.01, -25.17, -24.72, -21.19, -18.13, 0.000, 0.000, 0.000, 03:57:16.202
29, -20.65, -26.60, -18.40, -22.17, -24.94, -14.82, -16.56, -22.02, -18.95, -23.76, -13.70, -24.01, -25.17, -24.72, -21.19, -18.13, 0.000, 0.000, 0.000, 03:57:16.207
30, -20.65, -26.60, -18.40, -22.17, -24.94, -14.82, -16.56, -22.02, -19.00, -23.51, -13.77, -23.92, -25.39, -24.86, -21.21, -17.97, 0.000, 0.000, 0.000, 03:57:16.211
31, -20.70, -26.44, -18.57, -22.04, -24.63, -14.93, -16.67, -22.04, -19.00, -23.51, -13.77, -23.92, -25.39, -24.86, -21.21, -17.97, 0.000, 0.000, 0.000, 03:57:16.214
32, -20.70, -26.44, -18.57, -22.04, -24.63, -14.93, -16.67, -22.04, -18.95, -23.42, -13.95, -23.96, -25.50, -24.94, -21.10, -17.97, 0.000, 0.000, 0.000, 03:57:16.218
33, -20.81, -26.46, -18.53, -22.31, -24.86, -15.04, -16.88, -22.15, -18.95, -23.42, -13.95, -23.96, -25.50, -24.94, -21.10, -17.97, 0.000, 0.000, 0.000, 03:57:16.222
34, -20.81, -26.46, -18.53, -22.31, -24.86, -15.04, -16.88, -22.15, -18.93, -23.58, -13.93, -23.80, -25.57, -24.92, -21.08, -17.97, 0.000, 0.000, 0.000, 03:57:16.226
35, -20.74, -26.58, -18.46, -22.31, -24.86, -14.93, -16.61, -22.26, -18.93, -23.58, -13.93, -23.80, -25.57, -24.92, -21.08, -17.97, 0.000, 0.000, 0.000, 03:57:16.231
36, -20.74, -26.58, -18.46, -22.31, -24.86, -14.93, -16.61, -22.26, -18.80, -23.54, -13.99, -24.18, -25.39, -24.90, -20.99, -17.88, 0.020, 0.940, 0.290, 03:57:16.235
37, -20.81, -26.71, -18.69, -22.06, -25.06, -14.86, -16.74, -22.49, -18.80, -23.54, -13.99, -24.18, -25.39, -24.90, -20.99, -17.88, 0.000, 0.000, 0.000, 03:57:16.237
38, -20.81, -26.71, -18.69, -22.06, -25.06, -14.86, -16.74, -22.49, -19.02, -23.45, -13.55, -23.98, -25.19, -24.72, -20.94, -18.10, 0.000, 0.000, 0.000, 03:57:16.242
39, -20.72, -26.62, -18.35, -21.95, -24.83, -14.95, -16.50, -22.06, -19.02, -23.45, -13.55, -23.98, -25.19, -24.72, -20.94, -18.10, 0.000, 0.000, 0.000, 03:57:16.247
40, -20.72, -26.62, -18.35, -21.95, -24.83, -14.95, -16.50, -22.06, -18.86, -23.58, -13.99, -23.96, -25.41, -25.06, -21.14, -17.99, 0.000, 0.000, 0.000, 03:57:16.250
41, -20.70, -26.62, -18.26, -22.04, -25.08, -14.86, -16.70, -21.93, -18.86, -23.58, -13.99, -23.96, -25.41, -25.06, -21.14, -17.99, 0.000, 0.000, 0.000, 03:57:16.254
42, -20.70, -26.62, -18.26, -22.04, -25.08, -14.86, -16.70, -21.93, -18.82, -23.54, -13.90, -23.85, -25.44, -24.99, -21.19, -18.04, 0.000, 0.000, 0.000, 03:57:16.258
43, -20.68, -26.53, -18.40, -21.95, -24.94, -14.82, -16.65, -22.04, -18.82, -23.54, -13.90, -23.85, -25.44, -24.99, -21.19, -18.04, 0.000, 0.000, 0.000, 03:57:16.262
44, -20.68, -26.53, -18.40, -21.95, -24.94, -14.82, -16.65, -22.04, -18.84, -23.31, -13.79, -23.94, -25.41, -24.77, -21.06, -17.99, 0.000, 0.000, 0.000, 03:57:16.266
45, -20.81, -26.35, -18.44, -22.11, -25.01, -15.07, -16.58, -22.15, -18.84, -23.31, -13.79, -23.94, -25.41, -24.77, -21.06, -17.99, 0.000, 0.000, 0.000, 03:57:16.271
46, -20.81, -26.35, -18.44, -22.11, -25.01, -15.07, -16.58, -22.15, -19.00, -23.34, -13.90, -24.03, -25.48, -24.79, -21.14, -18.22, 0.022, 0.936, 0.292, 03:57:16.276
47, -20.85, -26.42, -18.42, -21.86, -24.99, -14.91, -16.76, -22.24, -19.00, -23.34, -13.90, -24.03, -25.48, -24.79, -21.14, -18.22, 0.000, 0.000, 0.000, 03:57:16.280
48, -20.85, -26.42, -18.42, -21.86, -24.99, -14.91, -16.76, -22.24, -18.93, -23.36, -13.97, -24.05, -25.50, -24.72, -20.92, -18.15, 0.000, 0.000, 0.000, 03:57:16.283
49, -20.94, -26.51, -18.55, -21.93, -24.97, -14.91, -16.67, -22.15, -18.93, -23.36, -13.97, -24.05, -25.50, -24.72, -20.92, -18.15, 0.000, 0.000, 0.000, 03:57:16.286
50, -20.94, -26.51, -18.55, -21.93, -24.97, -14.91, -16.67, -22.15, -19.00, -23.63, -13.86, -23.87, -25.35, -24.97, -20.92, -17.93, 0.000, 0.000, 0.000, 03:57:16.292
51, -20.63, -26.46, -18.46, -21.95, -25.15, -15.00, -16.94, -22.11, -19.00, -23.63, -13.86, -23.87, -25.35, -24.97, -20.92, -17.93, 0.000, 0.000, 0.000, 03:57:16.295
52, -20.63, -26.46, -18.46, -21.95, -25.15, -15.00, -16.94, -22.11, -18.89, -23.63, -13.72, -23.87, -25.28, -24.99, -21.14, -18.13, 0.000, 0.000, 0.000, 03:57:16.299
53, -20.68, -26.49, -18.37, -22.17, -24.94, -15.04, -16.67, -22.33, -18.89, -23.63, -13.72, -23.87, -25.28, -24.99, -21.14, -18.13, 0.000, 0.000, 0.000, 03:57:16.303
54, -20.68, -26.49, -18.37, -22.17, -24.94, -15.04, -16.67, -22.33, -18.95, -23.42, -13.70, -23.94, -25.37, -24.77, -21.12, -18.06, 0.000, 0.000, 0.000, 03:57:16.306
55, -20.65, -26.69, -18.44, -22.22, -24.90, -14.93, -16.63, -22.08, -18.95, -23.42, -13.70, -23.94, -25.37, -24.77, -21.12, -18.06, 0.000, 0.000, 0.000, 03:57:16.309
56, -20.65, -26.69, -18.44, -22.22, -24.90, -14.93, -16.63, -22.08, -18.84, -23.49, -14.15, -24.05, -25.35, -24.79, -20.94, -17.99, 0.016, 0.938, 0.286, 03:57:16.314
57, -20.74, -26.69, -18.46, -22.13, -25.06, -15.09, -16.74, -22.02, -18.84, -23.49, -14.15, -24.05, -25.35, -24.79, -20.94, -17.99, 0.000, 0.000, 0.000, 03:57:16.318
58, -20.74, -26.69, -18.46, -22.13, -25.06, -15.09, -16.74, -22.02, -18.98, -23.45, -13.77, -23.92, -25.24, -24.86, -21.08, -17.99, 0.000, 0.000, 0.000, 03:57:16.322
59, -20.74, -26.53, -18.55, -22.17, -24.86, -15.13, -16.76, -22.17, -18.98, -23.45, -13.77, -23.92, -25.24, -24.86, -21.08, -17.99, 0.000, 0.000, 0.000, 03:57:16.326
60, -20.74, -26.53, -18.55, -22.17, -24.86, -15.13, -16.76, -22.17, -19.00, -23.22, -13.99, -23.85, -25.59, -24.74, -21.06, -18.26, 0.000, 0.000, 0.000, 03:57:16.330
61, -20.70, -26.62, -18.57, -22.08, -24.97, -14.95, -16.81, -21.88, -19.00, -23.22, -13.99, -23.85, -25.59, -24.74, -21.06, -18.26, 0.000, 0.000, 0.000, 03:57:16.334
62, -20.70, -26.62, -18.57, -22.08, -24.97, -14.95, -16.81, -21.88, -18.89, -23.40, -13.97, -23.92, -25.39, -24.74, -21.17, -18.08, 0.000, 0.000, 0.000, 03:57:16.338
63, -20.74, -26.64, -18.48, -21.95, -24.88, -14.91, -16.56, -22.02, -18.89, -23.40, -13.97, -23.92, -25.39, -24.74, -21.17, -18.08, 0.000, 0.000, 0.000, 03:57:16.341
64, -20.74, -26.64, -18.48, -21.95, -24.88, -14.91, -16.56, -22.02, -18.80, -23.25, -14.10, -23.92, -25.24, -24.52, -21.32, -18.02, 0.000, 0.000, 0.000, 03:57:16.346
65, -20.72, -26.49, -18.60, -22.08, -25.01, -14.77, -16.70, -22.04, -18.80, -23.25, -14.10, -23.92, -25.24, -24.52, -21.32, -18.02, 0.000, 0.000, 0.000, 03:57:16.350
66, -20.72, -26.49, -18.60, -22.08, -25.01, -14.77, -16.70, -22.04, -18.71, -23.38, -13.93, -23.94, -25.15, -24.65, -21.19, -17.95, 0.012, 0.944, 0.300, 03:57:16.354
67, -20.59, -26.40, -18.42, -22.11, -24.99, -14.82, -16.76, -22.31, -18.71, -23.38, -13.93, -23.94, -25.15, -24.65, -21.19, -17.95, 0.000, 0.000, 0.000, 03:57:16.359
68, -20.59, -26.40, -18.42, -22.11, -24.99, -14.82, -16.76, -22.31, -18.73, -23.22, -13.90, -23.94, -25.32, -24.86, -20.99, -17.95, 0.000, 0.000, 0.000, 03:57:16.361
69, -20.52, -26.71, -18.28, -22.17, -25.08, -14.86, -16.58, -21.99, -18.73, -23.22, -13.90, -23.94, -25.32, -24.86, -20.99, -17.95, 0.000, 0.000, 0.000, 03:57:16.366
70, -20.52, -26.71, -18.28, -22.17, -25.08, -14.86, -16.58, -21.99, -18.84, -23.25, -13.77, -24.12, -25.35, -24.86, -20.88, -17.84, 0.000, 0.000, 0.000, 03:57:16.370
71, -20.70, -26.53, -18.42, -22.28, -25.10, -15.13, -16.61, -22.20, -18.84, -23.25, -13.77, -24.12, -25.35, -24.86, -20.88, -17.84, 0.000, 0.000, 0.000, 03:57:16.374
72, -20.70, -26.53, -18.42, -22.28, -25.10, -15.13, -16.61, -22.20, -18.86, -23.34, -13.90, -24.03, -25.41, -24.77, -21.19, -18.06, 0.000, 0.000, 0.000, 03:57:16.378
73, -20.72, -26.46, -18.57, -22.02, -25.10, -15.11, -16.63, -22.02, -18.86, -23.34, -13.90, -24.03, -25.41, -24.77, -21.19, -18.06, 0.000, 0.000, 0.000, 03:57:16.382
74, -20.72, -26.46, -18.57, -22.02, -25.10, -15.11, -16.63, -22.02, -18.89, -23.45, -13.70, -23.78, -25.50, -24.63, -21.48, -18.06, 0.000, 0.000, 0.000, 03:57:16.386
75, -20.65, -26.58, -18.48, -22.11, -24.99, -14.89, -16.81, -22.15, -18.89, -23.45, -13.70, -23.78, -25.50, -24.63, -21.48, -18.06, 0.000, 0.000, 0.000, 03:57:16.389
76, -20.65, -26.58, -18.48, -22.11, -24.99, -14.89, -16.81, -22.15, -19.00, -23.56, -13.77, -24.07, -25.37, -24.77, -21.17, -18.08, 0.012, 0.950, 0.308, 03:57:16.394
77, -20.65, -26.58, -18.64, -22.13, -25.12, -14.77, -16.81, -22.20, -19.00, -23.56, -13.77, -24.07, -25.37, -24.77, -21.17, -18.08, 0.000, 0.000, 0.000, 03:57:16.398
78, -20.65, -26.58, -18.64, -22.13, -25.12, -14.77, -16.81, -22.20, -18.75, -23.27, -13.77, -24.03, -25.41, -24.79, -21.32, -18.19, 0.000, 0.000, 0.000, 03:57:16.402
79, -20.68, -26.58, -18.78, -22.11, -24.86, -14.82, -16.88, -21.99, -18.75, -23.27, -13.77, -24.03, -25.41, -24.79, -21.32, -18.19, 0.000, 0.000, 0.000, 03:57:16.406
80, -20.68, -26.58, -18.78, -22.11, -24.86, -14.82, -16.88, -21.99, -18.75, -23.40, -13.95, -23.89, -25.53, -24.86, -21.12, -17.99, 0.000, 0.000, 0.000, 03:57:16.410
81, -20.83, -26.55, -18.69, -22.13, -24.81, -14.84, -16.65, -22.08, -18.75, -23.40, -13.95, -23.89, -25.53, -24.86, -21.12, -17.99, 0.000, 0.000, 0.000, 03:57:16.414
82, -20.83, -26.55, -18.69, -22.13, -24.81, -14.84, -16.65, -22.08, -19.00, -23.56, -13.93, -23.94, -25.17, -24.92, -21.21, -17.97, 0.000, 0.000, 0.000, 03:57:16.417
83, -20.72, -26.58, -18.51, -22.11, -24.99, -14.82, -16.67, -21.97, -19.00, -23.56, -13.93, -23.94, -25.17, -24.92, -21.21, -17.97, 0.000, 0.000, 0.000, 03:57:16.421
84, -20.72, -26.58, -18.51, -22.11, -24.99, -14.82, -16.67, -21.97, -18.93, -23.58, -13.75, -23.98, -25.46, -24.61, -21.12, -17.97, 0.000, 0.000, 0.000, 03:57:16.426
85, -20.81, -26.49, -18.48, -22.15, -24.86, -14.95, -16.63, -22.13, -18.93, -23.58, -13.75, -23.98, -25.46, -24.61, -21.12, -17.97, 0.006, 0.938, 0.288, 03:57:16.430
86, -20.81, -26.49, -18.48, -22.15, -24.86, -14.95, -16.63, -22.13, -18.91, -23.51, -13.79, -23.98, -25.15, -24.81, -21.17, -17.84, 0.000, 0.000, 0.000, 03:57:16.434
87, -20.65, -26.38, -18.66, -22.06, -24.92, -15.02, -16.63, -22.08, -18.91, -23.51, -13.79, -23.98, -25.15, -24.81, -21.17, -17.84, 0.000, 0.000, 0.000, 03:57:16.438
88, -20.65, -26.38, -18.66, -22.06, -24.92, -15.02, -16.63, -22.08, -18.91, -23.45, -14.01, -23.92, -25.44, -24.77, -21.14, -17.93, 0.000, 0.000, 0.000, 03:57:16.442
89, -20.70, -26.26, -18.53, -22.15, -24.81, -15.00, -16.79, -22.17, -18.91, -23.45, -14.01, -23.92, -25.44, -24.77, -21.14, -17.93, 0.000, 0.000, 0.000, 03:57:16.445
90, -20.70, -26.26, -18.53, -22.15, -24.81, -15.00, -16.79, -22.17, -18.82, -23.42, -13.95, -23.98, -25.15, -24.83, -21.14, -17.97, 0.000, 0.000, 0.000, 03:57:16.449
91, -20.74, -26.58, -18.40, -22.08, -25.06, -14.93, -16.83, -22.15, -18.82, -23.42, -13.95, -23.98, -25.15, -24.83, -21.14, -17.97, 0.000, 0.000, 0.000, 03:57:16.454
92, -20.74, -26.58, -18.40, -22.08, -25.06, -14.93, -16.83, -22.15, -18.80, -23.34, -14.01, -24.01, -25.19, -24.79, -21.14, -17.99, 0.000, 0.000, 0.000, 03:57:16.458
93, -20.81, -26.62, -18.40, -22.15, -24.74, -15.11, -16.65, -22.15, -18.80, -23.34, -14.01, -24.01, -25.19, -24.79, -21.14, -17.99, 0.000, 0.000, 0.000, 03:57:16.462
94, -20.81, -26.62, -18.40, -22.15, -24.74, -15.11, -16.65, -22.15, -18.75, -23.58, -13.88, -23.80, -25.21, -24.81, -21.01, -18.10, 0.000, 0.000, 0.000, 03:57:16.467
95, -20.88, -26.33, -18.53, -22.11, -24.94, -14.95, -16.72, -22.31, -18.75, -23.58, -13.88, -23.80, -25.21, -24.81, -21.01, -18.10, 0.004, 0.946, 0.288, 03:57:16.470
96, -20.88, -26.33, -18.53, -22.11, -24.94, -14.95, -16.72, -22.31, -18.64, -23.27, -13.90, -23.78, -25.46, -24.74, -21.08, -18.02, 0.000, 0.000, 0.000, 03:57:16.474
97, -20.72, -26.55, -18.62, -22.08, -25.03, -14.82, -16.65, -21.73, -18.64, -23.27, -13.90, -23.78, -25.46, -24.74, -21.08, -18.02, 0.000, 0.000, 0.000, 03:57:16.477
98, -20.72, -26.55, -18.62, -22.08, -25.03, -14.82, -16.65, -21.73, -18.86, -23.45, -14.04, -23.80, -25.41, -24.88, -21.06, -18.13, 0.000, 0.000, 0.000, 03:57:16.482
99, -20.65, -26.53, -18.51, -22.02, -24.97, -14.84, -16.85, -21.95, -18.86, -23.45, -14.04, -23.80, -25.41, -24.88, -21.06, -18.13, 0.000, 0.000, 0.000, 03:57:16.486
100, -20.65, -26.53, -18.51, -22.02, -24.97, -14.84, -16.85, -21.95, -18.95, -23.56, -14.08, -23.76, -25.24, -24.92, -21.14, -17.88, 0.000, 0.000, 0.000, 03:57:16.490
101, -20.79, -26.58, -18.60, -22.04, -24.92, -15.00, -16.88, -22.15, -18.95, -23.56, -14.08, -23.76, -25.24, -24.92, -21.14, -17.88, 0.000, 0.000, 0.000, 03:57:16.494
102, -20.79, -26.58, -18.60, -22.04, -24.92, -15.00, -16.88, -22.15, -19.00, -23.45, -13.79, -23.80, -25.15, -24.77, -21.10, -17.95, 0.000, 0.000, 0.000, 03:57:16.497
103, -20.76, -26.64, -18.35, -22.15, -25.12, -15.20, -16.76, -22.08, -19.00, -23.45, -13.79, -23.80, -25.15, -24.77, -21.10, -17.95, 0.000, 0.000, 0.000, 03:57:16.501
104, -20.76, -26.64, -18.35, -22.15, -25.12, -15.20, -16.76, -22.08, -18.78, -23.20, -13.84, -23.85, -25.37, -24.77, -21.03, -18.02, 0.000, 0.000, 0.000, 03:57:16.506
105, -20.79, -26.49, -18.51, -22.31, -25.19, -14.93, -16.58, -22.08, -18.78, -23.20, -13.84, -23.85, -25.37, -24.77, -21.03, -18.02, 0.016, 0.942, 0.292, 03:57:16.511
106, -20.79, -26.49, -18.51, -22.31, -25.19, -14.93, -16.58, -22.08, -18.89, -23.34, -13.77, -23.78, -25.44, -24.88, -21.14, -18.04, 0.000, 0.000, 0.000, 03:57:16.514
107, -20.68, -26.55, -18.40, -22.06, -25.06, -14.93, -16.79, -22.11, -18.89, -23.34, -13.77, -23.78, -25.44, -24.88, -21.14, -18.04, 0.000, 0.000, 0.000, 03:57:16.518
108, -20.68, -26.55, -18.40, -22.06, -25.06, -14.93, -16.79, -22.11, -18.86, -23.47, -13.81, -23.72, -25.26, -24.77, -21.08, -18.06, 0.000, 0.000, 0.000, 03:57:16.521
109, -20.81, -26.78, -18.73, -21.97, -25.08, -14.91, -16.85, -22.15, -18.86, -23.47, -13.81, -23.72, -25.26, -24.77, -21.08, -18.06, 0.000, 0.000, 0.000, 03:57:16.525
110, -20.81, -26.78, -18.73, -21.97, -25.08, -14.91, -16.85, -22.15, -18.75, -23.38, -13.93, -23.83, -25.30, -24.86, -20.92, -17.72, 0.000, 0.000, 0.000, 03:57:16.530
111, -20.61, -26.46, -18.84, -22.02, -25.01, -15.02, -16.67, -22.15, -18.75, -23.38, -13.93, -23.83, -25.30, -24.86, -20.92, -17.72, 0.000, 0.000, 0.000, 03:57:16.533
112, -20.61, -26.46, -18.84, -22.02, -25.01, -15.02, -16.67, -22.15, -18.98, -23.60, -13.93, -24.03, -25.26, -24.74, -20.97, -17.84, 0.000, 0.000, 0.000, 03:57:16.537
113, -20.92, -26.51, -18.35, -21.93, -24.83, -14.95, -16.65, -22.31, -18.98, -23.60, -13.93, -24.03, -25.26, -24.74, -20.97, -17.84, 0.000, 0.000, 0.000, 03:57:16.542
114, -20.92, -26.51, -18.35, -21.93, -24.83, -14.95, -16.65, -22.31, -18.84, -23.42, -14.01, -24.07, -25.28, -24.92, -21.06, -17.97, 0.000, 0.000, 0.000, 03:57:16.546
115, -20.76, -26.46, -18.35, -22.06, -24.83, -14.93, -16.67, -22.11, -18.84, -23.42, -14.01, -24.07, -25.28, -24.92, -21.06, -17.97, 0.016, 0.944, 0.310, 03:57:16.549
116, -20.76, -26.46, -18.35, -22.06, -24.83, -14.93, -16.67, -22.11, -18.84, -23.58, -13.88, -24.03, -25.32, -24.77, -21.06, -18.10, 0.000, 0.000, 0.000, 03:57:16.554
117, -20.68, -26.62, -18.64, -22.15, -25.08, -14.91, -16.85, -22.17, -18.84, -23.58, -13.88, -24.03, -25.32, -24.77, -21.06, -18.10, 0.000, 0.000, 0.000, 03:57:16.557
118, -20.68, -26.62, -18.64, -22.15, -25.08, -14.91, -16.85, -22.17, -18.82, -23.45, -13.97, -23.92, -25.39, -24.88, -21.26, -18.08, 0.000, 0.000, 0.000, 03:57:16.561
119, -20.52, -26.46, -18.51, -22.28, -25.01, -14.98, -16.79, -22.20, -18.82, -23.45, -13.97, -23.92, -25.39, -24.88, -21.26, -18.08, 0.000, 0.000, 0.000, 03:57:16.565
120, -20.52, -26.46, -18.51, -22.28, -25.01, -14.98, -16.79, -22.20, -18.93, -23.31, -13.99, -24.07, -25.41, -24.74, -21.06, -18.06, 0.000, 0.000, 0.000, 03:57:16.571
121, -20.59, -26.53, -18.46, -21.79, -25.03, -15.04, -16.76, -22.24, -18.93, -23.31, -13.99, -24.07, -25.41, -24.74, -21.06, -18.06, 0.000, 0.000, 0.000, 03:57:16.575
122, -20.59, -26.53, -18.46, -21.79, -25.03, -15.04, -16.76, -22.24, -19.02, -23.51, -13.93, -23.96, -25.17, -24.79, -21.08, -18.19, 0.000, 0.000, 0.000, 03:57:16.579
123, -20.85, -26.46, -18.55, -21.97, -25.17, -14.82, -16.74, -22.33, -19.02, -23.51, -13.93, -23.96, -25.17, -24.79, -21.08, -18.19, 0.000, 0.000, 0.000, 03:57:16.582
124, -20.85, -26.46, -18.55, -21.97, -25.17, -14.82, -16.74, -22.33, -19.00, -23.54, -13.99, -23.83, -25.30, -24.81, -21.17, -17.86, 0.000, 0.000, 0.000, 03:57:16.586
125, -20.90, -26.51, -18.55, -22.11, -24.97, -15.09, -16.63, -22.13, -19.00, -23.54, -13.99, -23.83, -25.30, -24.81, -21.17, -17.86, 0.022, 0.936, 0.302, 03:57:16.589
126, -20.90, -26.51, -18.55, -22.11, -24.97, -15.09, -16.63, -22.13, -18.93, -23.40, -14.10, -23.80, -25.35, -24.59, -21.01, -17.97, 0.000, 0.000, 0.000, 03:57:16.594
127, -20.65, -26.69, -18.48, -22.15, -24.90, -14.95, -16.88, -21.88, -18.93, -23.40, -14.10, -23.80, -25.35, -24.59, -21.01, -17.97, 0.000, 0.000, 0.000, 03:57:16.598
128, -20.65, -26.69, -18.48, -22.15, -24.90, -14.95, -16.88, -21.88, -19.02, -23.34, -13.95, -23.98, -25.37, -24.92, -21.08, -17.95, 0.000, 0.000, 0.000, 03:57:16.602
129, -20.56, -26.53, -18.64, -21.99, -25.01, -14.89, -16.85, -22.06, -19.02, -23.34, -13.95, -23.98, -25.37, -24.92, -21.08, -17.95, 0.000, 0.000, 0.000, 03:57:16.606
130, -20.56, -26.53, -18.64, -21.99, -25.01, -14.89, -16.85, -22.06, -18.86, -23.60, -13.90, -24.10, -25.35, -24.65, -20.97, -18.04, 0.000, 0.000, 0.000, 03:57:16.610
131, -20.81, -26.38, -18.64, -22.22, -24.92, -14.98, -16.70, -22.02, -18.86, -23.60, -13.90, -24.10, -25.35, -24.65, -20.97, -18.04, 0.000, 0.000, 0.000, 03:57:16.615
132, -20.81, -26.38, -18.64, -22.22, -24.92, -14.98, -16.70, -22.02, -18.75, -23.42, -13.93, -24.14, -25.44, -24.97, -20.83, -18.10, 0.000, 0.000, 0.000, 03:57:16.620
133, -20.72, -26.60, -18.64, -22.24, -25.03, -14.80, -16.56, -22.06, -18.75, -23.42, -13.93, -24.14, -25.44, -24.97, -20.83, -18.10, 0.000, 0.000, 0.000, 03:57:16.622
134, -20.72, -26.60, -18.64, -22.24, -25.03, -14.80, -16.56, -22.06, -19.02, -23.51, -13.90, -23.98, -25.50, -24.83, -21.19, -18.17, 0.000, 0.000, 0.000, 03:57:16.629
135, -20.76, -26.62, -18.44, -22.11, -25.15, -15.09, -16.85, -22.11, -19.02, -23.51, -13.90, -23.98, -25.50, -24.83, -21.19, -18.17, 0.014, 0.946, 0.302, 03:57:16.633
136, -20.76, -26.62, -18.44, -22.11, -25.15, -15.09, -16.85, -22.11, -19.00, -23.40, -13.90, -23.78, -25.37, -24.65, -21.21, -18.13, 0.000, 0.000, 0.000, 03:57:16.635
137, -20.83, -26.60, -18.57, -22.11, -24.90, -14.93, -16.67, -22.02, -19.00, -23.40, -13.90, -23.78, -25.37, -24.65, -21.21, -18.13, 0.000, 0.000, 0.000, 03:57:16.640
138, -20.83, -26.60, -18.57, -22.11, -24.90, -14.93, -16.67, -22.02, -18.86, -23.31, -13.86, -23.94, -25.55, -24.72, -21.01, -18.17, 0.000, 0.000, 0.000, 03:57:16.642
139, -20.65, -26.53, -18.55, -22.11, -25.06, -14.86, -16.81, -22.22, -18.86, -23.31, -13.86, -23.94, -25.55, -24.72, -21.01, -18.17, 0.000, 0.000, 0.000, 03:57:16.646
140, -20.65, -26.53, -18.55, -22.11, -25.06, -14.86, -16.81, -22.22, -18.91, -23.38, -13.95, -24.14, -25.30, -24.86, -21.14, -17.99, 0.000, 0.000, 0.000, 03:57:16.649
141, -20.56, -26.35, -18.60, -22.08, -24.88, -14.84, -16.79, -22.04, -18.91, -23.38, -13.95, -24.14, -25.30, -24.86, -21.14, -17.99, 0.000, 0.000, 0.000, 03:57:16.654
142, -20.56, -26.35, -18.60, -22.08, -24.88, -14.84, -16.79, -22.04, -19.04, -23.40, -13.86, -24.05, -25.32, -24.65, -21.21, -18.02, 0.000, 0.000, 0.000, 03:57:16.658
143, -20.70, -26.60, -18.55, -21.99, -25.01, -14.91, -16.92, -22.31, -19.04, -23.40, -13.86, -24.05, -25.32, -24.65, -21.21, -18.02, 0.000, 0.000, 0.000, 03:57:16.662
144, -20.70, -26.60, -18.55, -21.99, -25.01, -14.91, -16.92, -22.31, -19.00, -23.36, -13.90, -23.78, -25.37, -24.81, -21.14, -18.02, 0.018, 0.952, 0.310, 03:57:16.666
145, -20.72, -26.44, -18.64, -22.04, -25.03, -14.89, -16.79, -22.08, -19.00, -23.36, -13.90, -23.78, -25.37, -24.81, -21.14, -18.02, 0.000, 0.000, 0.000, 03:57:16.669
146, -20.72, -26.44, -18.64, -22.04, -25.03, -14.89, -16.79, -22.08, -18.91, -23.51, -13.95, -23.98, -25.32, -24.92, -21.28, -18.24, 0.000, 0.000, 0.000, 03:57:16.673
147, -20.85, -26.35, -18.60, -22.06, -25.15, -14.77, -16.67, -22.26, -18.91, -23.51, -13.95, -23.98, -25.32, -24.92, -21.28, -18.24, 0.000, 0.000, 0.000, 03:57:16.677
148, -20.85, -26.35, -18.60, -22.06, -25.15, -14.77, -16.67, -22.26, -18.93, -23.49, -14.04, -23.92, -25.53, -24.72, -21.30, -18.35, 0.000, 0.000, 0.000, 03:57:16.682
149, -20.56, -26.53, -18.80, -22.13, -24.94, -14.77, -16.85, -22.13, -18.93, -23.49, -14.04, -23.92, -25.53, -24.72, -21.30, -18.35, 0.000, 0.000, 0.000, 03:57:16.686
150, -20.56, -26.53, -18.80, -22.13, -24.94, -14.77, -16.85, -22.13, -19.04, -23.22, -14.06, -23.92, -25.41, -24.94, -21.12, -18.37, 0.000, 0.000, 0.000, 03:57:16.689
151, -20.90, -26.60, -18.60, -22.08, -25.10, -15.02, -16.67, -21.95, -19.04, -23.22, -14.06, -23.92, -25.41, -24.94, -21.12, -18.37, 0.000, 0.000, 0.000, 03:57:16.694
152, -20.90, -26.60, -18.60, -22.08, -25.10, -15.02, -16.67, -21.95, -18.89, -23.42, -13.99, -23.85, -25.37, -24.72, -21.37, -18.13, 0.000, 0.000, 0.000, 03:57:16.698
153, -20.65, -26.55, -18.46, -22.06, -24.77, -14.89, -16.74, -22.17, -18.89, -23.42, -13.99, -23.85, -25.37, -24.72, -21.37, -18.13, 0.000, 0.000, 0.000, 03:57:16.701
154, -20.65, -26.55, -18.46, -22.06, -24.77, -14.89, -16.74, -22.17, -18.78, -23.20, -13.90, -24.12, -25.26, -24.90, -21.23, -17.97, 0.014, 0.948, 0.308, 03:57:16.706
155, -20.54, -26.69, -18.35, -22.08, -25.15, -14.89, -16.63, -22.02, -18.78, -23.20, -13.90, -24.12, -25.26, -24.90, -21.23, -17.97, 0.000, 0.000, 0.000, 03:57:16.708
156, -20.54, -26.69, -18.35, -22.08, -25.15, -14.89, -16.63, -22.02, -18.78, -23.29, -13.88, -23.85, -25.44, -24.74, -21.26, -18.22, 0.000, 0.000, 0.000, 03:57:16.712
157, -20.88, -26.53, -18.60, -21.99, -24.94, -14.93, -16.72, -22.22, -18.78, -23.29, -13.88, -23.85, -25.44, -24.74, -21.26, -18.22, 0.000, 0.000, 0.000, 03:57:16.717
158, -20.88, -26.53, -18.60, -21.99, -24.94, -14.93, -16.72, -22.22, -18.75, -23.31, -13.86, -23.96, -25.30, -24.86, -21.32, -18.08, 0.000, 0.000, 0.000, 03:57:16.722
159, -20.72, -26.35, -18.51, -22.22, -24.86, -14.93, -16.79, -22.11, -18.75, -23.31, -13.86, -23.96, -25.30, -24.86, -21.32, -18.08, 0.000, 0.000, 0.000, 03:57:16.725
160, -20.72, -26.35, -18.51, -22.22, -24.86, -14.93, -16.79, -22.11, -18.95, -23.47, -13.95, -23.85, -25.30, -24.83, -21.08, -18.31, 0.000, 0.000, 0.000, 03:57:16.730
161, -20.47, -26.55, -18.51, -22.20, -25.03, -14.77, -16.83, -22.06, -18.95, -23.47, -13.95, -23.85, -25.30, -24.83, -21.08, -18.31, 0.000, 0.000, 0.000, 03:57:16.734
162, -20.47, -26.55, -18.51, -22.20, -25.03, -14.77, -16.83, -22.06, -18.75, -23.47, -14.04, -24.07, -25.55, -24.99, -21.21, -17.97, 0.000, 0.000, 0.000, 03:57:16.737
163, -20.90, -26.64, -18.35, -22.02, -25.19, -14.71, -16.85, -22.20, -18.75, -23.47, -14.04, -24.07, -25.55, -24.99, -21.21, -17.97, 0.000, 0.000, 0.000, 03:57:16.741
164, -20.90, -26.64, -18.35, -22.02, -25.19, -14.71, -16.85, -22.20, -18.89, -23.31, -13.70, -23.94, -25.26, -24.90, -21.23, -17.97, 0.010, 0.938, 0.292, 03:57:16.747
165, -20.74, -26.44, -18.51, -22.13, -25.01, -14.84, -16.72, -22.17, -18.89, -23.31, -13.70, -23.94, -25.26, -24.90, -21.23, -17.97, 0.000, 0.000, 0.000, 03:57:16.749
166, -20.74, -26.44, -18.51, -22.13, -25.01, -14.84, -16.72, -22.17, -19.02, -23.34, -13.86, -23.83, -25.35, -24.94, -21.01, -18.10, 0.000, 0.000, 0.000, 03:57:16.753
167, -20.81, -26.67, -18.55, -21.97, -24.94, -14.84, -16.85, -21.97, -19.02, -23.34, -13.86, -23.83, -25.35, -24.94, -21.01, -18.10, 0.000, 0.000, 0.000, 03:57:16.758
168, -20.81, -26.67, -18.55, -21.97, -24.94, -14.84, -16.85, -21.97, -19.00, -23.51, -13.93, -23.98, -25.46, -24.94, -20.97, -17.88, 0.000, 0.000, 0.000, 03:57:16.761
169, -20.68, -26.26, -18.53, -22.02, -24.92, -14.77, -16.99, -22.20, -19.00, -23.51, -13.93, -23.98, -25.46, -24.94, -20.97, -17.88, 0.000, 0.000, 0.000, 03:57:16.764
170, -20.68, -26.26, -18.53, -22.02, -24.92, -14.77, -16.99, -22.20, -19.00, -23.42, -13.99, -23.96, -25.44, -24.79, -21.10, -17.95, 0.000, 0.000, 0.000, 03:57:16.768
171, -20.70, -26.42, -18.44, -22.02, -24.86, -14.80, -16.81, -21.97, -19.00, -23.42, -13.99, -23.96, -25.44, -24.79, -21.10, -17.95, 0.000, 0.000, 0.000, 03:57:16.773
172, -20.70, -26.42, -18.44, -22.02, -24.86, -14.80, -16.81, -21.97, -18.89, -23.47, -13.93, -24.03, -25.37, -24.81, -21.23, -18.22, 0.000, 0.000, 0.000, 03:57:16.778
173, -20.76, -26.69, -18.53, -21.93, -24.74, -14.93, -16.79, -21.95, -18.89, -23.47, -13.93, -24.03, -25.37, -24.81, -21.23, -18.22, 0.000, 0.000, 0.000, 03:57:16.781
174, -20.76, -26.69, -18.53, -21.93, -24.74, -14.93, -16.79, -21.95, -18.89, -23.42, -14.06, -23.98, -25.28, -24.74, -21.19, -18.28, 0.014, 0.948, 0.296, 03:57:16.785
175, -20.61, -26.53, -18.48, -22.17, -24.88, -15.11, -16.72, -22.06, -18.89, -23.42, -14.06, -23.98, -25.28, -24.74, -21.19, -18.28, 0.000, 0.000, 0.000, 03:57:16.790
176, -20.61, -26.53, -18.48, -22.17, -24.88, -15.11, -16.72, -22.06, -18.73, -23.51, -13.79, -24.27, -25.32, -24.74, -21.32, -18.13, 0.000, 0.000, 0.000, 03:57:16.792
177, -20.70, -26.69, -18.51, -22.11, -24.97, -15.09, -16.63, -22.08, -18.73, -23.51, -13.79, -24.27, -25.32, -24.74, -21.32, -18.13, 0.000, 0.000, 0.000, 03:57:16.797
178, -20.70, -26.69, -18.51, -22.11, -24.97, -15.09, -16.63, -22.08, -19.00, -23.67, -13.68, -24.01, -25.28, -24.88, -21.21, -18.31, 0.000, 0.000, 0.000, 03:57:16.801
179, -20.61, -26.60, -18.66, -22.13, -24.90, -14.93, -16.76, -22.04, -19.00, -23.67, -13.68, -24.01, -25.28, -24.88, -21.21, -18.31, 0.000, 0.000, 0.000, 03:57:16.804
180, -20.61, -26.60, -18.66, -22.13, -24.90, -14.93, -16.76, -22.04, -18.95, -23.51, -13.90, -23.94, -25.30, -24.63, -21.21, -18.26, 0.000, 0.000, 0.000, 03:57:16.810
181, -20.79, -26.38, -18.71, -22.44, -25.01, -14.89, -16.83, -22.08, -18.95, -23.51, -13.90, -23.94, -25.30, -24.63, -21.21, -18.26, 0.000, 0.000, 0.000, 03:57:16.813
182, -20.79, -26.38, -18.71, -22.44, -25.01, -14.89, -16.83, -22.08, -18.98, -23.51, -13.97, -24.01, -25.32, -24.63, -21.14, -18.19, 0.000, 0.000, 0.000, 03:57:16.817
183, -20.90, -26.55, -18.71, -22.11, -25.10, -14.75, -17.01, -22.06, -18.98, -23.51, -13.97, -24.01, -25.32, -24.63, -21.14, -18.19, 0.000, 0.000, 0.000, 03:57:16.821
184, -20.90, -26.55, -18.71, -22.11, -25.10, -14.75, -17.01, -22.06, -19.02, -23.45, -13.99, -23.85, -25.41, -24.88, -21.44, -18.22, 0.024, 0.944, 0.300, 03:57:16.824
185, -20.88, -26.46, -18.37, -22.24, -24.90, -14.84, -16.63, -22.06, -19.02, -23.45, -13.99, -23.85, -25.41, -24.88, -21.44, -18.22, 0.000, 0.000, 0.000, 03:57:16.829
186, -20.88, -26.46, -18.37, -22.24, -24.90, -14.84, -16.63, -22.06, -19.00, -23.51, -13.79, -24.03, -25.41, -24.74, -21.10, -17.93, 0.000, 0.000, 0.000, 03:57:16.835
187, -20.81, -26.40, -18.57, -22.24, -24.88, -15.27, -16.74, -22.26, -19.00, -23.51, -13.79, -24.03, -25.41, -24.74, -21.10, -17.93, 0.000, 0.000, 0.000, 03:57:16.838
188, -20.81, -26.40, -18.57, -22.24, -24.88, -15.27, -16.74, -22.26, -18.75, -23.45, -13.90, -24.05, -25.59, -24.77, -21.10, -17.93, 0.000, 0.000, 0.000, 03:57:16.841
189, -20.72, -26.44, -18.53, -22.15, -24.88, -15.02, -16.88, -22.15, -18.75, -23.45, -13.90, -24.05, -25.59, -24.77, -21.10, -17.93, 0.000, 0.000, 0.000, 03:57:16.845
190, -20.72, -26.44, -18.53, -22.15, -24.88, -15.02, -16.88, -22.15, -18.93, -23.22, -13.79, -24.10, -25.64, -24.97, -21.06, -18.13, 0.000, 0.000, 0.000, 03:57:16.848
191, -20.70, -26.53, -18.51, -21.93, -24.90, -14.89, -16.90, -22.06, -18.93, -23.22, -13.79, -24.10, -25.64, -24.97, -21.06, -18.13, 0.000, 0.000, 0.000, 03:57:16.853
192, -20.70, -26.53, -18.51, -21.93, -24.90, -14.89, -16.90, -22.06, -18.91, -23.42, -14.01, -23.80, -25.44, -24.90, -21.10, -17.84, 0.000, 0.000, 0.000, 03:57:16.856
193, -20.79, -26.55, -18.46, -22.13, -24.88, -14.89, -16.72, -21.95, -18.91, -23.42, -14.01, -23.80, -25.44, -24.90, -21.10, -17.84, 0.000, 0.000, 0.000, 03:57:16.861
194, -20.79, -26.55, -18.46, -22.13, -24.88, -14.89, -16.72, -21.95, -18.84, -23.42, -13.84, -23.94, -25.59, -24.83, -21.26, -17.90, 0.014, 0.942, 0.288, 03:57:16.866
195, -20.61, -26.49, -18.42, -22.26, -25.03, -14.86, -16.81, -22.02, -18.84, -23.42, -13.84, -23.94, -25.59, -24.83, -21.26, -17.90, 0.000, 0.000, 0.000, 03:57:16.869
196, -20.61, -26.49, -18.42, -22.26, -25.03, -14.86, -16.81, -22.02, -19.02, -23.36, -13.77, -23.76, -25.19, -24.86, -21.17, -18.04, 0.000, 0.000, 0.000, 03:57:16.873
197, -20.63, -26.69, -18.57, -21.97, -24.86, -14.89, -16.67, -22.15, -19.02, -23.36, -13.77, -23.76, -25.19, -24.86, -21.17, -18.04, 0.000, 0.000, 0.000, 03:57:16.877
198, -20.63, -26.69, -18.57, -21.97, -24.86, -14.89, -16.67, -22.15, -18.98, -23.38, -13.93, -23.94, -25.37, -25.08, -21.23, -18.06, 0.000, 0.000, 0.000, 03:57:16.881
199, -20.76, -26.76, -18.37, -21.95, -25.03, -14.77, -16.61, -22.02, -18.98, -23.38, -13.93, -23.94, -25.37, -25.08, -21.23, -18.06, 0.000, 0.000, 0.000, 03:57:16.885
200, -20.76, -26.76, -18.37, -21.95, -25.03, -14.77, -16.61, -22.02, -18.93, -23.69, -13.72, -23.92, -25.37, -24.97, -21.23, -17.79, 0.000, 0.000, 0.000, 03:57:16.888
201, -20.74, -26.55, -18.55, -22.13, -25.03, -15.09, -16.83, -22.02, -18.93, -23.69, -13.72, -23.92, -25.37, -24.97, -21.23, -17.79, 0.000, 0.000, 0.000, 03:57:16.893
202, -20.74, -26.55, -18.55, -22.13, -25.03, -15.09, -16.83, -22.02, -18.98, -23.51, -13.95, -24.10, -25.28, -24.65, -21.19, -17.77, 0.000, 0.000, 0.000, 03:57:16.897
203, -20.81, -26.55, -18.31, -22.28, -25.08, -15.22, -16.79, -22.28, -18.98, -23.51, -13.95, -24.10, -25.28, -24.65, -21.19, -17.77, 0.000, 0.000, 0.000, 03:57:16.900
204, -20.81, -26.55, -18.31, -22.28, -25.08, -15.22, -16.79, -22.28, -18.89, -23.45, -13.88, -24.10, -25.53, -24.59, -21.06, -17.99, 0.022, 0.954, 0.304, 03:57:16.905
205, -20.74, -26.53, -18.66, -22.15, -25.15, -14.98, -16.56, -22.17, -18.89, -23.45, -13.88, -24.10, -25.53, -24.59, -21.06, -17.99, 0.000, 0.000, 0.000, 03:57:16.909
206, -20.74, -26.53, -18.66, -22.15, -25.15, -14.98, -16.56, -22.17, -18.93, -23.49, -13.90, -23.96, -25.19, -24.72, -21.08, -18.04, 0.000, 0.000, 0.000, 03:57:16.913
207, -20.88, -26.53, -18.69, -22.02, -24.81, -14.91, -16.88, -22.04, -18.93, -23.49, -13.90, -23.96, -25.19, -24.72, -21.08, -18.04, 0.000, 0.000, 0.000, 03:57:16.917
208, -20.88, -26.53, -18.69, -22.02, -24.81, -14.91, -16.88, -22.04, -18.80, -23.49, -13.68, -23.96, -25.17, -24.61, -21.12, -18.22, 0.000, 0.000, 0.000, 03:57:16.922
209, -20.70, -26.55, -18.51, -22.28, -25.06, -14.77, -16.72, -22.13, -18.80, -23.49, -13.68, -23.96, -25.17, -24.61, -21.12, -18.22, 0.000, 0.000, 0.000, 03:57:16.925
210, -20.70, -26.55, -18.51, -22.28, -25.06, -14.77, -16.72, -22.13, -18.69, -23.38, -14.04, -24.10, -25.28, -24.70, -21.08, -17.99, 0.000, 0.000, 0.000, 03:57:16.929
211, -20.81, -26.71, -18.31, -22.06, -24.92, -15.09, -16.76, -22.08, -18.69, -23.38, -14.04, -24.10, -25.28, -24.70, -21.08, -17.99, 0.000, 0.000, 0.000, 03:57:16.932
212, -20.81, -26.71, -18.31, -22.06, -24.92, -15.09, -16.76, -22.08, -18.73, -23.56, -14.04, -23.98, -25.39, -24.74, -21.23, -18.19, 0.000, 0.000, 0.000, 03:57:16.937
213, -20.59, -26.53, -18.42, -22.17, -25.10, -15.09, -16.70, -22.31, -18.73, -23.56, -14.04, -23.98, -25.39, -24.74, -21.23, -18.19, 0.016, 0.960, 0.308, 03:57:16.940
214, -20.59, -26.53, -18.42, -22.17, -25.10, -15.09, -16.70, -22.31, -18.95, -23.36, -13.90, -23.92, -25.32, -24.83, -21.21, -18.13, 0.000, 0.000, 0.000, 03:57:16.945
215, -20.94, -26.58, -18.71, -22.13, -25.12, -14.98, -16.70, -22.04, -18.95, -23.36, -13.90, -23.92, -25.32, -24.83, -21.21, -18.13, 0.000, 0.000, 0.000, 03:57:16.950
216, -20.94, -26.58, -18.71, -22.13, -25.12, -14.98, -16.70, -22.04, -18.64, -23.25, -13.90, -23.96, -25.53, -24.52, -21.23, -18.35, 0.000, 0.000, 0.000, 03:57:16.952
217, -20.74, -26.64, -18.48, -22.15, -25.01, -14.95, -16.88, -22.04, -18.64, -23.25, -13.90, -23.96, -25.53, -24.52, -21.23, -18.35, 0.000, 0.000, 0.000, 03:57:16.956
218, -20.74, -26.64, -18.48, -22.15, -25.01, -14.95, -16.88, -22.04, -18.89, -23.54, -13.86, -23.85, -25.24, -24.90, -21.14, -17.95, 0.000, 0.000, 0.000, 03:57:16.960
219, -20.74, -26.64, -18.62, -22.24, -24.79, -14.93, -16.81, -22.13, -18.89, -23.54, -13.86, -23.85, -25.24, -24.90, -21.14, -17.95, 0.000, 0.000, 0.000, 03:57:16.965
220, -20.74, -26.64, -18.62, -22.24, -24.79, -14.93, -16.81, -22.13, -18.84, -23.42, -13.95, -23.98, -25.46, -24.74, -21.12, -18.15, 0.000, 0.000, 0.000, 03:57:16.969
221, -20.63, -26.60, -18.51, -22.28, -24.88, -14.89, -16.90, -22.15, -18.84, -23.42, -13.95, -23.98, -25.46, -24.74, -21.12, -18.15, 0.000, 0.000, 0.000, 03:57:16.975
222, -20.63, -26.60, -18.51, -22.28, -24.88, -14.89, -16.90, -22.15, -19.04, -23.51, -13.95, -24.03, -25.39, -24.52, -21.01, -18.17, 0.000, 0.000, 0.000, 03:57:16.978
223, -20.90, -26.46, -18.55, -22.31, -25.06, -14.98, -16.88, -22.17, -19.04, -23.51, -13.95, -24.03, -25.39, -24.52, -21.01, -18.17, 0.018, 0.946, 0.306, 03:57:16.982
224, -20.90, -26.46, -18.55, -22.31, -25.06, -14.98, -16.88, -22.17, -19.04, -23.51, -13.77, -23.98, -25.53, -24.74, -21.01, -17.81, 0.000, 0.000, 0.000, 03:57:16.985
225, -20.59, -26.60, -18.62, -22.13, -25.03, -15.07, -16.83, -21.95, -19.04, -23.51, -13.77, -23.98, -25.53, -24.74, -21.01, -17.81, 0.000, 0.000, 0.000, 03:57:16.989
226, -20.59, -26.60, -18.62, -22.13, -25.03, -15.07, -16.83, -21.95, -18.91, -23.34, -14.15, -23.98, -25.39, -24.77, -21.26, -17.93, 0.000, 0.000, 0.000, 03:57:16.993
227, -20.88, -26.62, -18.40, -22.28, -24.99, -15.07, -16.79, -21.99, -18.91, -23.34, -14.15, -23.98, -25.39, -24.77, -21.26, -17.93, 0.000, 0.000, 0.000, 03:57:16.997
228, -20.88, -26.62, -18.40, -22.28, -24.99, -15.07, -16.79, -21.99, -18.80, -23.22, -13.95, -23.94, -25.32, -24.72, -21.17, -17.95, 0.000, 0.000, 0.000, 03:57:17.000
229, -20.54, -26.49, -18.51, -22.20, -24.90, -14.82, -16.56, -22.31, -18.80, -23.22, -13.95, -23.94, -25.32, -24.72, -21.17, -17.95, 0.000, 0.000, 0.000, 03:57:17.004
230, -20.54, -26.49, -18.51, -22.20, -24.90, -14.82, -16.56, -22.31, -18.98, -23.51, -13.86, -23.96, -25.28, -24.74, -21.37, -17.90, 0.000, 0.000, 0.000, 03:57:17.010
231, -20.76, -26.53, -18.42, -22.13, -25.08, -14.80, -16.92, -22.08, -18.98, -23.51, -13.86, -23.96, -25.28, -24.74, -21.37, -17.90, 0.000, 0.000, 0.000, 03:57:17.013
232, -20.76, -26.53, -18.42, -22.13, -25.08, -14.80, -16.92, -22.08, -18.75, -23.40, -14.01, -23.89, -25.24, -24.68, -21.17, -18.02, 0.000, 0.000, 0.000, 03:57:17.017
233, -20.70, -26.60, -18.28, -22.11, -25.15, -15.00, -16.92, -22.26, -18.75, -23.40, -14.01, -23.89, -25.24, -24.68, -21.17, -18.02, 0.014, 0.948, 0.296, 03:57:17.021
234, -20.70, -26.60, -18.28, -22.11, -25.15, -15.00, -16.92, -22.26, -18.60, -23.20, -13.95, -24.03, -25.30, -24.79, -21.32, -17.81, 0.000, 0.000, 0.000, 03:57:17.025
235, -20.56, -26.67, -18.51, -22.04, -24.77, -14.91, -16.96, -22.13, -18.60, -23.20, -13.95, -24.03, -25.30, -24.79, -21.32, -17.81, 0.000, 0.000, 0.000, 03:57:17.029
236, -20.56, -26.67, -18.51, -22.04, -24.77, -14.91, -16.96, -22.13, -18.73, -23.56, -14.01, -23.89, -25.44, -24.72, -21.12, -17.81, 0.000, 0.000, 0.000, 03:57:17.033
237, -20.68, -26.64, -18.46, -21.77, -25.17, -14.77, -16.85, -22.24, -18.73, -23.56, -14.01, -23.89, -25.44, -24.72, -21.12, -17.81, 0.000, 0.000, 0.000, 03:57:17.036
238, -20.68, -26.64, -18.46, -21.77, -25.17, -14.77, -16.85, -22.24, -19.04, -23.31, -14.10, -23.83, -25.28, -24.94, -20.97, -17.86, 0.000, 0.000, 0.000, 03:57:17.040
239, -20.56, -26.76, -18.42, -22.22, -25.15, -14.80, -16.90, -22.22, -19.04, -23.31, -14.10, -23.83, -25.28, -24.94, -20.97, -17.86, 0.000, 0.000, 0.000, 03:57:17.044
240, -20.56, -26.76, -18.42, -22.22, -25.15, -14.80, -16.90, -22.22, -18.75, -23.78, -13.93, -23.92, -25.46, -24.88, -21.03, -18.10, 0.000, 0.000, 0.000, 03:57:17.049
241, -20.74, -26.69, -18.64, -21.95, -25.06, -14.75, -16.81, -22.31, -18.75, -23.78, -13.93, -23.92, -25.46, -24.88, -21.03, -18.10, 0.000, 0.000, 0.000, 03:57:17.053
242, -20.74, -26.69, -18.64, -21.95, -25.06, -14.75, -16.81, -22.31, -18.71, -23.51, -13.95, -23.69, -25.24, -25.08, -21.17, -18.10, 0.000, 0.000, 0.000, 03:57:17.057
243, -20.63, -26.53, -18.42, -21.77, -24.99, -15.07, -16.83, -22.13, -18.71, -23.51, -13.95, -23.69, -25.24, -25.08, -21.17, -18.10, 0.020, 0.960, 0.306, 03:57:17.060
244, -20.63, -26.53, -18.42, -21.77, -24.99, -15.07, -16.83, -22.13, -18.95, -23.49, -13.57, -23.92, -25.19, -24.92, -21.17, -17.81, 0.000, 0.000, 0.000, 03:57:17.064
245, -20.76, -26.53, -18.71, -22.04, -25.01, -14.86, -16.67, -22.22, -18.95, -23.49, -13.57, -23.92, -25.19, -24.92, -21.17, -17.81, 0.000, 0.000, 0.000, 03:57:17.068
246, -20.76, -26.53, -18.71, -22.04, -25.01, -14.86, -16.67, -22.22, -18.98, -23.49, -13.97, -23.87, -25.50, -24.72, -21.06, -18.10, 0.000, 0.000, 0.000, 03:57:17.072
247, -20.72, -26.51, -18.69, -22.26, -24.97, -14.84, -16.79, -22.20, -18.98, -23.49, -13.97, -23.87, -25.50, -24.72, -21.06, -18.10, 0.000, 0.000, 0.000, 03:57:17.077
248, -20.72, -26.51, -18.69, -22.26, -24.97, -14.84, -16.79, -22.20, -18.84, -23.51, -14.06, -24.12, -25.26, -24.90, -21.26, -18.02, 0.000, 0.000, 0.000, 03:57:17.081
249, -20.59, -26.58, -18.53, -22.20, -25.12, -14.86, -16.58, -22.04, -18.84, -23.51, -14.06, -24.12, -25.26, -24.90, -21.26, -18.02, 0.000, 0.000, 0.000, 03:57:17.085
250, -20.59, -26.58, -18.53, -22.20, -25.12, -14.86, -16.58, -22.04, -19.00, -23.29, -14.01, -24.10, -25.28, -24.74, -21.21, -18.24, 0.000, 0.000, 0.000, 03:57:17.088
251, -20.61, -26.67, -18.64, -22.17, -24.68, -14.91, -16.74, -22.06, -19.00, -23.29, -14.01, -24.10, -25.28, -24.74, -21.21, -18.24, 0.000, 0.000, 0.000, 03:57:17.092
252, -20.61, -26.67, -18.64, -22.17, -24.68, -14.91, -16.74, -22.06, -18.93, -23.51, -14.01, -23.96, -25.24, -24.92, -21.44, -17.90, 0.000, 0.000, 0.000, 03:57:17.096
253, -20.70, -26.62, -18.44, -22.20, -24.86, -14.89, -16.63, -22.17, -18.93, -23.51, -14.01, -23.96, -25.24, -24.92, -21.44, -17.90, 0.018, 0.954, 0.310, 03:57:17.100
254, -20.70, -26.62, -18.44, -22.20, -24.86, -14.89, -16.63, -22.17, -18.98, -23.54, -13.93, -23.92, -25.32, -24.92, -21.39, -17.97, 0.000, 0.000, 0.000, 03:57:17.105
255, -20.70, -26.71, -18.35, -21.95, -24.99, -14.89, -16.88, -22.17, -18.98, -23.54, -13.93, -23.92, -25.32, -24.92, -21.39, -17.97, 0.000, 0.000, 0.000, 03:57:17.109
0, -20.70, -26.71, -18.35, -21.95, -24.99, -14.89, -16.88, -22.17, -18.89, -23.45, -13.95, -23.78, -25.35, -24.99, -21.28, -18.02, 0.000, 0.000, 0.000, 03:57:17.112
1, -20.79, -26.40, -18.53, -22.20, -24.88, -14.95, -16.81, -22.02, -18.89, -23.45, -13.95, -23.78, -25.35, -24.99, -21.28, -18.02, 0.000, 0.000, 0.000, 03:57:17.115
2, -20.79, -26.40, -18.53, -22.20, -24.88, -14.95, -16.81, -22.02, -18.91, -23.49, -13.86, -23.89, -25.35, -24.94, -21.10, -18.08, 0.000, 0.000, 0.000, 03:57:17.120
3, -20.79, -26.38, -18.48, -22.20, -24.88, -15.11, -16.94, -22.24, -18.91, -23.49, -13.86, -23.89, -25.35, -24.94, -21.10, -18.08, 0.000, 0.000, 0.000, 03:57:17.124
4, -20.79, -26.38, -18.48, -22.20, -24.88, -15.11, -16.94, -22.24, -18.66, -23.51, -13.90, -23.89, -25.12, -24.79, -21.14, -18.10, 0.000, 0.000, 0.000, 03:57:17.128
5, -20.85, -26.46, -18.60, -22.11, -24.97, -14.98, -16.76, -22.33, -18.66, -23.51, -13.90, -23.89, -25.12, -24.79, -21.14, -18.10, 0.000, 0.000, 0.000, 03:57:17.133
6, -20.85, -26.46, -18.60, -22.11, -24.97, -14.98, -16.76, -22.33, -19.09, -23.54, -13.88, -24.03, -25.30, -24.86, -21.26, -17.93, 0.000, 0.000, 0.000, 03:57:17.138
7, -20.68, -26.53, -18.55, -22.22, -25.15, -15.11, -16.81, -22.31, -19.09, -23.54, -13.88, -24.03, -25.30, -24.86, -21.26, -17.93, 0.008, 0.956, 0.306, 03:57:17.141
8, -20.68, -26.53, -18.55, -22.22, -25.15, -15.11, -16.81, -22.31, -18.98, -23.34, -14.06, -23.96, -25.35, -24.86, -20.90, -17.99, 0.000, 0.000, 0.000, 03:57:17.145
9, -20.59, -26.42, -18.53, -21.84, -25.12, -14.84, -16.81, -22.02, -18.98, -23.34, -14.06, -23.96, -25.35, -24.86, -20.90, -17.99, 0.000, 0.000, 0.000, 03:57:17.148
10, -20.59, -26.42, -18.53, -21.84, -25.12, -14.84, -16.81, -22.02, -18.89, -23.31, -13.88, -24.05, -25.19, -24.88, -20.94, -18.04, 0.000, 0.000, 0.000, 03:57:17.152
11, -20.81, -26.55, -18.48, -22.06, -24.81, -14.86, -16.70, -22.24, -18.89, -23.31, -13.88, -24.05, -25.19, -24.88, -20.94, -18.04, 0.000, 0.000, 0.000, 03:57:17.156
12, -20.81, -26.55, -18.48, -22.06, -24.81, -14.86, -16.70, -22.24, -18.73, -23.29, -13.99, -24.21, -25.24, -24.86, -21.01, -18.15, 0.000, 0.000, 0.000, 03:57:17.161
13, -20.88, -26.40, -18.53, -22.08, -24.90, -14.98, -16.83, -22.26, -18.73, -23.29, -13.99, -24.21, -25.24, -24.86, -21.01, -18.15, 0.000, 0.000, 0.000, 03:57:17.166
14, -20.88, -26.40, -18.53, -22.08, -24.90, -14.98, -16.83, -22.26, -18.91, -23.34, -13.97, -24.05, -25.39, -24.94, -21.10, -18.04, 0.000, 0.000, 0.000, 03:57:17.169
15, -20.74, -26.38, -18.64, -22.08, -24.74, -14.95, -16.56, -22.11, -18.91, -23.34, -13.97, -24.05, -25.39, -24.94, -21.10, -18.04, 0.000, 0.000, 0.000, 03:57:17.173
16, -20.74, -26.38, -18.64, -22.08, -24.74, -14.95, -16.56, -22.11, -18.78, -23.31, -14.01, -24.10, -25.46, -24.77, -21.37, -17.88, 0.012, 0.948, 0.314, 03:57:17.176
17, -20.83, -26.55, -18.57, -22.13, -24.97, -14.80, -16.83, -22.04, -18.78, -23.31, -14.01, -24.10, -25.46, -24.77, -21.37, -17.88, 0.000, 0.000, 0.000, 03:57:17.180
18, -20.83, -26.55, -18.57, -22.13, -24.97, -14.80, -16.83, -22.04, -19.00, -23.54, -13.81, -23.83, -25.39, -24.61, -21.19, -18.04, 0.000, 0.000, 0.000, 03:57:17.185
19, -20.50, -26.53, -18.62, -22.20, -24.99, -15.00, -16.54, -22.20, -19.00, -23.54, -13.81, -23.83, -25.39, -24.61, -21.19, -18.04, 0.000, 0.000, 0.000, 03:57:17.188
20, -20.50, -26.53, -18.62, -22.20, -24.99, -15.00, -16.54, -22.20, -18.84, -23.56, -13.75, -23.94, -25.46, -24.92, -20.81, -18.06, 0.000, 0.000, 0.000, 03:57:17.192
21, -20.68, -26.64, -18.35, -22.15, -24.97, -14.95, -16.94, -22.26, -18.84, -23.56, -13.75, -23.94, -25.46, -24.92, -20.81, -18.06, 0.000, 0.000, 0.000, 03:57:17.195
22, -20.68, -26.64, -18.35, -22.15, -24.97, -14.95, -16.94, -22.26, -18.73, -23.51, -13.95, -24.14, -25.46, -24.83, -21.17, -17.90, 0.000, 0.000, 0.000, 03:57:17.200
23, -20.72, -26.64, -18.48, -22.06, -24.86, -14.95, -16.79, -22.24, -18.73, -23.51, -13.95, -24.14, -25.46, -24.83, -21.17, -17.90, 0.000, 0.000, 0.000, 03:57:17.204
24, -20.72, -26.64, -18.48, -22.06, -24.86, -14.95, -16.79, -22.24, -19.00, -23.38, -14.01, -23.87, -25.41, -24.74, -21.12, -17.97, 0.000, 0.000, 0.000, 03:57:17.208
25, -20.90, -26.42, -18.35, -22.11, -24.74, -14.93, -16.76, -21.95, -19.00, -23.38, -14.01, -23.87, -25.41, -24.74, -21.12, -17.97, 0.000, 0.000, 0.000, 03:57:17.212
26, -20.90, -26.42, -18.35, -22.11, -24.74, -14.93, -16.76, -21.95, -19.07, -23.45, -13.77, -23.85, -25.06, -24.68, -21.12, -17.90, 0.010, 0.952, 0.298, 03:57:17.216
27, -20.68, -26.44, -18.46, -22.02, -24.90, -14.91, -16.74, -22.17, -19.07, -23.45, -13.77, -23.85, -25.06, -24.68, -21.12, -17.90, 0.000, 0.000, 0.000, 03:57:17.220
28, -20.68, -26.44, -18.46, -22.02, -24.90, -14.91, -16.74, -22.17, -19.07, -23.56, -13.72, -24.10, -25.06, -24.86, -21.21, -18.13, 0.000, 0.000, 0.000, 03:57:17.223
29, -20.61, -26.58, -18.75, -21.97, -24.92, -15.09, -16.74, -22.22, -19.07, -23.56, -13.72, -24.10, -25.06, -24.86, -21.21, -18.13, 0.000, 0.000, 0.000, 03:57:17.229
30, -20.61, -26.58, -18.75, -21.97, -24.92, -15.09, -16.74, -22.22, -18.86, -23.60, -13.90, -24.01, -25.44, -24.68, -21.14, -17.99, 0.000, 0.000, 0.000, 03:57:17.232
31, -20.63, -26.60, -18.66, -22.13, -25.10, -15.07, -16.74, -22.33, -18.86, -23.60, -13.90, -24.01, -25.44, -24.68, -21.14, -17.99, 0.000, 0.000, 0.000, 03:57:17.237
32, -20.63, -26.60, -18.66, -22.13, -25.10, -15.07, -16.74, -22.33, -18.86, -23.42, -14.08, -23.98, -25.10, -24.65, -21.26, -17.77, 0.000, 0.000, 0.000, 03:57:17.240
33, -20.72, -26.60, -18.55, -22.17, -25.10, -14.82, -16.72, -21.99, -18.86, -23.42, -14.08, -23.98, -25.10, -24.65, -21.26, -17.77, 0.000, 0.000, 0.000, 03:57:17.244
34, -20.72, -26.60, -18.55, -22.17, -25.10, -14.82, -16.72, -21.99, -18.84, -23.47, -13.84, -24.01, -25.26, -24.72, -21.21, -17.93, 0.000, 0.000, 0.000, 03:57:17.249
35, -20.74, -26.42, -18.55, -21.95, -24.97, -14.98, -16.61, -22.02, -18.84, -23.47, -13.84, -24.01, -25.26, -24.72, -21.21, -17.93, 0.000, 0.000, 0.000, 03:57:17.251
36, -20.74, -26.42, -18.55, -21.95, -24.97, -14.98, -16.61, -22.02, -18.95, -23.54, -13.72, -24.18, -25.15, -24.61, -21.19, -17.88, 0.006, 0.946, 0.306, 03:57:17.256
37, -20.72, -26.69, -18.37, -22.17, -25.03, -14.77, -16.74, -22.15, -18.95, -23.54, -13.72, -24.18, -25.15, -24.61, -21.19, -17.88, 0.000, 0.000, 0.000, 03:57:17.260
38, -20.72, -26.69, -18.37, -22.17, -25.03, -14.77, -16.74, -22.15, -18.89, -23.49, -13.93, -23.87, -25.37, -24.70, -20.92, -18.06, 0.000, 0.000, 0.000, 03:57:17.264
39, -20.50, -26.42, -18.62, -22.08, -25.10, -14.75, -16.76, -21.99, -18.89, -23.49, -13.93, -23.87, -25.37, -24.70, -20.92, -18.06, 0.000, 0.000, 0.000, 03:57:17.268
40, -20.50, -26.42, -18.62, -22.08, -25.10, -14.75, -16.76, -21.99, -18.89, -23.29, -13.88, -23.94, -25.30, -24.70, -21.10, -18.22, 0.000, 0.000, 0.000, 03:57:17.272
41, -20.63, -26.62, -18.33, -22.11, -24.99, -14.86, -16.74, -22.15, -18.89, -23.29, -13.88, -23.94, -25.30, -24.70, -21.10, -18.22, 0.000, 0.000, 0.000, 03:57:17.275
42, -20.63, -26.62, -18.33, -22.11, -24.99, -14.86, -16.74, -22.15, -18.84, -23.51, -13.68, -24.14, -25.39, -24.70, -21.26, -18.10, 0.000, 0.000, 0.000, 03:57:17.282
43, -20.72, -26.40, -18.62, -21.99, -24.90, -14.73, -16.81, -22.15, -18.84, -23.51, -13.68, -24.14, -25.39, -24.70, -21.26, -18.10, 0.000, 0.000, 0.000, 03:57:17.284
44, -20.72, -26.40, -18.62, -21.99, -24.90, -14.73, -16.81, -22.15, -19.00, -23.47, -13.81, -24.01, -25.28, -24.70, -21.23, -18.10, 0.000, 0.000, 0.000, 03:57:17.288
45, -20.76, -26.51, -18.44, -22.04, -25.21, -15.11, -16.96, -22.15, -19.00, -23.47, -13.81, -24.01, -25.28, -24.70, -21.23, -18.10, 0.000, 0.000, 0.000, 03:57:17.293
46, -20.76, -26.51, -18.44, -22.04, -25.21, -15.11, -16.96, -22.15, -18.73, -23.56, -14.08, -23.94, -25.28, -24.88, -21.26, -18.08, 0.008, 0.940, 0.296, 03:57:17.298
47, -20.72, -26.46, -18.46, -21.99, -24.92, -14.86, -16.63, -22.06, -18.73, -23.56, -14.08, -23.94, -25.28, -24.88, -21.26, -18.08, 0.000, 0.000, 0.000, 03:57:17.301
48, -20.72, -26.46, -18.46, -21.99, -24.92, -14.86, -16.63, -22.06, -18.82, -23.49, -13.86, -23.94, -25.41, -24.97, -21.26, -18.13, 0.000, 0.000, 0.000, 03:57:17.305
49, -20.76, -26.49, -18.46, -22.02, -25.08, -14.89, -16.85, -21.93, -18.82, -23.49, -13.86, -23.94, -25.41, -24.97, -21.26, -18.13, 0.000, 0.000, 0.000, 03:57:17.307
50, -20.76, -26.49, -18.46, -22.02, -25.08, -14.89, -16.85, -21.93, -18.69, -23.63, -13.97, -23.96, -25.32, -24.83, -21.28, -18.08, 0.000, 0.000, 0.000, 03:57:17.312
51, -20.65, -26.55, -18.37, -22.06, -25.12, -14.84, -16.83, -22.02, -18.69, -23.63, -13.97, -23.96, -25.32, -24.83, -21.28, -18.08, 0.000, 0.000, 0.000, 03:57:17.316
52, -20.65, -26.55, -18.37, -22.06, -25.12, -14.84, -16.83, -22.02, -18.78, -23.63, -13.97, -24.14, -25.41, -24.59, -21.44, -18.08, 0.000, 0.000, 0.000, 03:57:17.320
53, -20.72, -26.58, -18.33, -22.13, -24.99, -14.80, -16.88, -22.04, -18.78, -23.63, -13.97, -24.14, -25.41, -24.59, -21.44, -18.08, 0.000, 0.000, 0.000, 03:57:17.325
54, -20.72, -26.58, -18.33, -22.13, -24.99, -14.80, -16.88, -22.04, -18.62, -23.49, -14.10, -24.05, -25.26, -24.77, -21.10, -18.22, 0.000, 0.000, 0.000, 03:57:17.327
55, -20.81, -26.62, -18.40, -22.22, -24.88, -14.95, -17.01, -21.90, -18.62, -23.49, -14.10, -24.05, -25.26, -24.77, -21.10, -18.22, 0.000, 0.000, 0.000, 03:57:17.331
56, -20.81, -26.62, -18.40, -22.22, -24.88, -14.95, -17.01, -21.90, -18.89, -23.51, -14.10, -24.05, -25.44, -24.56, -21.06, -18.26, 0.028, 0.942, 0.296, 03:57:17.336
57, -20.56, -26.58, -18.66, -22.13, -25.12, -15.09, -16.70, -22.11, -18.89, -23.51, -14.10, -24.05, -25.44, -24.56, -21.06, -18.26, 0.000, 0.000, 0.000, 03:57:17.339
58, -20.56, -26.58, -18.66, -22.13, -25.12, -15.09, -16.70, -22.11, -18.89, -23.58, -13.90, -23.89, -25.35, -24.70, -21.19, -17.99, 0.000, 0.000, 0.000, 03:57:17.344
59, -20.72, -26.51, -18.42, -22.04, -24.99, -14.93, -16.76, -22.17, -18.89, -23.58, -13.90, -23.89, -25.35, -24.70, -21.19, -17.99, 0.000, 0.000, 0.000, 03:57:17.349
60, -20.72, -26.51, -18.42, -22.04, -24.99, -14.93, -16.76, -22.17, -18.91, -23.42, -13.75, -24.07, -25.32, -24.83, -21.19, -18.08, 0.000, 0.000, 0.000, 03:57:17.352
61, -20.65, -26.60, -18.55, -22.26, -24.99, -14.86, -16.74, -22.28, -18.91, -23.42, -13.75, -24.07, -25.32, -24.83, -21.19, -18.08, 0.000, 0.000, 0.000, 03:57:17.356
62, -20.65, -26.60, -18.55, -22.26, -24.99, -14.86, -16.74, -22.28, -18.89, -23.65, -13.90, -23.76, -25.46, -25.01, -21.12, -18.13, 0.000, 0.000, 0.000, 03:57:17.361
63, -20.90, -26.53, -18.69, -22.13, -24.92, -14.86, -16.52, -22.11, -18.89, -23.65, -13.90, -23.76, -25.46, -25.01, -21.12, -18.13, 0.000, 0.000, 0.000, 03:57:17.363
64, -20.90, -26.53, -18.69, -22.13, -24.92, -14.86, -16.52, -22.11, -18.80, -23.42, -13.99, -24.01, -25.28, -24.77, -21.14, -17.97, 0.000, 0.000, 0.000, 03:57:17.367
65, -20.65, -26.62, -18.69, -22.24, -24.72, -14.86, -16.50, -21.97, -18.80, -23.42, -13.99, -24.01, -25.28, -24.77, -21.14, -17.97, 0.000, 0.000, 0.000, 03:57:17.373
66, -20.65, -26.62, -18.69, -22.24, -24.72, -14.86, -16.50, -21.97, -18.62, -23.45, -13.86, -24.05, -25.44, -24.79, -20.99, -18.08, 0.030, 0.942, 0.300, 03:57:17.376
67, -20.74, -26.64, -18.66, -22.02, -24.88, -15.02, -16.81, -22.08, -18.62, -23.45, -13.86, -24.05, -25.44, -24.79, -20.99, -18.08, 0.000, 0.000, 0.000, 03:57:17.379
68, -20.74, -26.64, -18.66, -22.02, -24.88, -15.02, -16.81, -22.08, -18.80, -23.51, -14.08, -23.92, -25.35, -24.72, -21.14, -18.04, 0.000, 0.000, 0.000, 03:57:17.384
69, -20.83, -26.55, -18.42, -21.95, -25.03, -14.80, -16.85, -22.08, -18.80, -23.51, -14.08, -23.92, -25.35, -24.72, -21.14, -18.04, 0.000, 0.000, 0.000, 03:57:17.387
70, -20.83, -26.55, -18.42, -21.95, -25.03, -14.80, -16.85, -22.08, -19.00, -23.47, -13.72, -23.78, -25.28, -24.77, -21.35, -18.13, 0.000, 0.000, 0.000, 03:57:17.392
71, -20.52, -26.40, -18.44, -22.13, -24.97, -14.98, -16.79, -22.13, -19.00, -23.47, -13.72, -23.78, -25.28, -24.77, -21.35, -18.13, 0.000, 0.000, 0.000, 03:57:17.395
72, -20.52, -26.40, -18.44, -22.13, -24.97, -14.98, -16.79, -22.13, -18.98, -23.51, -13.68, -23.98, -25.15, -24.92, -21.19, -17.77, 0.000, 0.000, 0.000, 03:57:17.399
73, -20.74, -26.58, -18.57, -22.11, -24.94, -14.93, -16.83, -22.13, -18.98, -23.51, -13.68, -23.98, -25.15, -24.92, -21.19, -17.77, 0.000, 0.000, 0.000, 03:57:17.404
74, -20.74, -26.58, -18.57, -22.11, -24.94, -14.93, -16.83, -22.13, -19.11, -23.36, -14.01, -24.03, -25.30, -24.65, -20.92, -17.70, 0.000, 0.000, 0.000, 03:57:17.407
75, -20.97, -26.38, -18.44, -22.24, -24.90, -14.86, -16.70, -22.06, -19.11, -23.36, -14.01, -24.03, -25.30, -24.65, -20.92, -17.70, 0.014, 0.932, 0.270, 03:57:17.411
76, -20.97, -26.38, -18.44, -22.24, -24.90, -14.86, -16.70, -22.06, -19.02, -23.25, -14.04, -23.98, -25.57, -24.90, -20.99, -18.15, 0.000, 0.000, 0.000, 03:57:17.416
77, -20.83, -26.40, -18.55, -21.75, -24.92, -14.86, -16.65, -22.13, -19.02, -23.25, -14.04, -23.98, -25.57, -24.90, -20.99, -18.15, 0.000, 0.000, 0.000, 03:57:17.419
78, -20.83, -26.40, -18.55, -21.75, -24.92, -14.86, -16.65, -22.13, -18.69, -23.58, -13.90, -23.80, -25.30, -24.74, -21.19, -18.10, 0.000, 0.000, 0.000, 03:57:17.424
79, -20.68, -26.58, -18.40, -21.99, -24.79, -14.89, -16.56, -22.04, -18.69, -23.58, -13.90, -23.80, -25.30, -24.74, -21.19, -18.10, 0.000, 0.000, 0.000, 03:57:17.429
80, -20.68, -26.58, -18.40, -21.99, -24.79, -14.89, -16.56, -22.04, -18.93, -23.34, -13.88, -23.83, -25.15, -24.81, -21.03, -18.13, 0.000, 0.000, 0.000, 03:57:17.432
81, -20.68, -26.55, -18.48, -22.11, -24.97, -15.04, -16.70, -22.17, -18.93, -23.34, -13.88, -23.83, -25.15, -24.81, -21.03, -18.13, 0.000, 0.000, 0.000, 03:57:17.436
82, -20.68, -26.55, -18.48, -22.11, -24.97, -15.04, -16.70, -22.17, -18.82, -23.51, -13.97, -23.74, -25.24, -24.92, -21.19, -18.13, 0.000, 0.000, 0.000, 03:57:17.439
83, -20.83, -26.62, -18.46, -21.95, -25.10, -14.98, -16.65, -22.13, -18.82, -23.51, -13.97, -23.74, -25.24, -24.92, -21.19, -18.13, 0.000, 0.000, 0.000, 03:57:17.443
84, -20.83, -26.62, -18.46, -21.95, -25.10, -14.98, -16.65, -22.13, -18.84, -23.31, -13.99, -23.69, -25.32, -24.81, -21.28, -17.99, 0.000, 0.000, 0.000, 03:57:17.448
85, -20.61, -26.67, -18.69, -22.04, -24.94, -15.07, -16.67, -21.90, -18.84, -23.31, -13.99, -23.69, -25.32, -24.81, -21.28, -17.99, 0.012, 0.934, 0.286, 03:57:17.451
86, -20.61, -26.67, -18.69, -22.04, -24.94, -15.07, -16.67, -21.90, -18.95, -23.74, -14.01, -23.80, -25.24, -25.01, -21.28, -18.10, 0.000, 0.000, 0.000, 03:57:17.455
87, -20.81, -26.49, -18.42, -22.11, -24.97, -14.84, -16.81, -22.20, -18.95, -23.74, -14.01, -23.80, -25.24, -25.01, -21.28, -18.10, 0.000, 0.000, 0.000, 03:57:17.461
88, -20.81, -26.49, -18.42, -22.11, -24.97, -14.84, -16.81, -22.20, -18.80, -23.58, -13.81, -24.03, -25.30, -24.86, -21.32, -18.04, 0.000, 0.000, 0.000, 03:57:17.463
89, -20.85, -26.51, -18.55, -22.02, -25.08, -14.84, -16.70, -21.93, -18.80, -23.58, -13.81, -24.03, -25.30, -24.86, -21.32, -18.04, 0.000, 0.000, 0.000, 03:57:17.467
90, -20.85, -26.51, -18.55, -22.02, -25.08, -14.84, -16.70, -21.93, -19.07, -23.54, -13.70, -23.83, -25.55, -24.79, -20.99, -18.15, 0.000, 0.000, 0.000, 03:57:17.472
91, -20.74, -26.64, -18.66, -22.06, -24.86, -15.04, -16.61, -21.97, -19.07, -23.54, -13.70, -23.83, -25.55, -24.79, -20.99, -18.15, 0.000, 0.000, 0.000, 03:57:17.476
92, -20.74, -26.64, -18.66, -22.06, -24.86, -15.04, -16.61, -21.97, -18.95, -23.38, -13.93, -23.87, -25.28, -24.70, -21.21, -18.10, 0.000, 0.000, 0.000, 03:57:17.479
93, -20.76, -26.49, -18.69, -21.77, -24.86, -14.84, -16.72, -21.99, -18.95, -23.38, -13.93, -23.87, -25.28, -24.70, -21.21, -18.10, 0.000, 0.000, 0.000, 03:57:17.484
94, -20.76, -26.49, -18.69, -21.77, -24.86, -14.84, -16.72, -21.99, -18.84, -23.63, -13.88, -23.89, -25.26, -24.61, -21.06, -18.08, 0.000, 0.000, 0.000, 03:57:17.487
95, -20.70, -26.55, -18.48, -22.13, -25.01, -14.86, -16.63, -22.20, -18.84, -23.63, -13.88, -23.89, -25.26, -24.61, -21.06, -18.08, 0.018, 0.952, 0.290, 03:57:17.491
96, -20.70, -26.55, -18.48, -22.13, -25.01, -14.86, -16.63, -22.20, -18.66, -23.42, -13.63, -24.10, -25.30, -25.01, -21.19, -18.08, 0.000, 0.000, 0.000, 03:57:17.495
97, -20.61, -26.71, -18.42, -22.17, -24.94, -14.86, -16.79, -22.15, -18.66, -23.42, -13.63, -24.10, -25.30, -25.01, -21.19, -18.08, 0.000, 0.000, 0.000, 03:57:17.500
98, -20.61, -26.71, -18.42, -22.17, -24.94, -14.86, -16.79, -22.15, -19.00, -23.38, -13.97, -23.98, -25.46, -24.74, -21.30, -17.86, 0.000, 0.000, 0.000, 03:57:17.504
99, -20.79, -26.49, -18.46, -21.97, -24.92, -14.86, -16.81, -22.04, -19.00, -23.38, -13.97, -23.98, -25.46, -24.74, -21.30, -17.86, 0.000, 0.000, 0.000, 03:57:17.507
100, -20.79, -26.49, -18.46, -21.97, -24.92, -14.86, -16.81, -22.04, -18.64, -23.54, -13.97, -23.85, -25.46, -24.86, -21.23, -18.08, 0.000, 0.000, 0.000, 03:57:17.512
101, -20.88, -26.67, -18.64, -22.06, -24.81, -14.93, -16.79, -21.88, -18.64, -23.54, -13.97, -23.85, -25.46, -24.86, -21.23, -18.08, 0.000, 0.000, 0.000, 03:57:17.516
102, -20.88, -26.67, -18.64, -22.06, -24.81, -14.93, -16.79, -21.88, -18.93, -23.38, -13.90, -24.07, -25.26, -25.01, -21.23, -18.02, 0.000, 0.000, 0.000, 03:57:17.518
103, -20.65, -26.62, -18.53, -22.04, -24.81, -15.02, -16.81, -22.20, -18.93, -23.38, -13.90, -24.07, -25.26, -25.01, -21.23, -18.02, 0.000, 0.000, 0.000, 03:57:17.524
104, -20.65, -26.62, -18.53, -22.04, -24.81, -15.02, -16.81, -22.20, -19.02, -23.51, -13.84, -23.92, -25.30, -24.83, -21.28, -18.13, 0.000, 0.000, 0.000, 03:57:17.527
105, -20.81, -26.60, -18.60, -22.04, -25.30, -15.04, -16.76, -22.02, -19.02, -23.51, -13.84, -23.92, -25.30, -24.83, -21.28, -18.13, 0.004, 0.930, 0.290, 03:57:17.532
106, -20.81, -26.60, -18.60, -22.04, -25.30, -15.04, -16.76, -22.02, -19.02, -23.31, -14.04, -24.01, -25.48, -25.01, -21.17, -17.97, 0.000, 0.000, 0.000, 03:57:17.536
107, -20.79, -26.55, -18.42, -21.88, -25.17, -14.75, -16.72, -22.13, -19.02, -23.31, -14.04, -24.01, -25.48, -25.01, -21.17, -17.97, 0.000, 0.000, 0.000, 03:57:17.539
108, -20.79, -26.55, -18.42, -21.88, -25.17, -14.75, -16.72, -22.13, -18.86, -23.60, -13.93, -24.03, -25.24, -24.77, -21.21, -18.08, 0.000, 0.000, 0.000, 03:57:17.543
109, -20.70, -26.53, -18.42, -21.88, -25.12, -15.11, -16.65, -22.28, -18.86, -23.60, -13.93, -24.03, -25.24, -24.77, -21.21, -18.08, 0.000, 0.000, 0.000, 03:57:17.546
110, -20.70, -26.53, -18.42, -21.88, -25.12, -15.11, -16.65, -22.28, -19.02, -23.45, -13.93, -23.96, -25.53, -24.86, -21.17, -17.90, 0.000, 0.000, 0.000, 03:57:17.552
111, -20.74, -26.40, -18.31, -22.17, -24.92, -14.91, -16.85, -22.22, -19.02, -23.45, -13.93, -23.96, -25.53, -24.86, -21.17, -17.90, 0.000, 0.000, 0.000, 03:57:17.555
112, -20.74, -26.40, -18.31, -22.17, -24.92, -14.91, -16.85, -22.22, -18.95, -23.45, -13.81, -23.96, -25.39, -24.72, -21.32, -17.97, 0.000, 0.000, 0.000, 03:57:17.560
113, -20.47, -26.49, -18.44, -22.20, -24.92, -14.98, -16.83, -22.20, -18.95, -23.45, -13.81, -23.96, -25.39, -24.72, -21.32, -17.97, 0.000, 0.000, 0.000, 03:57:17.563
114, -20.47, -26.49, -18.44, -22.20, -24.92, -14.98, -16.83, -22.20, -18.84, -23.47, -14.06, -23.89, -25.35, -24.65, -21.26, -18.04, 0.000, 0.000, 0.000, 03:57:17.569
115, -20.68, -26.40, -18.69, -22.22, -25.01, -14.86, -17.01, -22.08, -18.84, -23.47, -14.06, -23.89, -25.35, -24.65, -21.26, -18.04, 0.002, 0.930, 0.282, 03:57:17.573
116, -20.68, -26.40, -18.69, -22.22, -25.01, -14.86, -17.01, -22.08, -18.91, -23.65, -13.93, -23.89, -25.48, -24.65, -21.08, -18.15, 0.000, 0.000, 0.000, 03:57:17.575
117, -20.81, -26.51, -18.44, -22.04, -25.17, -14.80, -16.81, -22.15, -18.91, -23.65, -13.93, -23.89, -25.48, -24.65, -21.08, -18.15, 0.000, 0.000, 0.000, 03:57:17.580
118, -20.81, -26.51, -18.44, -22.04, -25.17, -14.80, -16.81, -22.15, -19.02, -23.60, -13.88, -24.18, -25.30, -24.68, -21.32, -18.19, 0.000, 0.000, 0.000, 03:57:17.584
119, -20.50, -26.78, -18.60, -22.20, -24.94, -14.91, -16.72, -22.33, -19.02, -23.60, -13.88, -24.18, -25.30, -24.68, -21.32, -18.19, 0.000, 0.000, 0.000, 03:57:17.587
120, -20.50, -26.78, -18.60, -22.20, -24.94, -14.91, -16.72, -22.33, -18.86, -23.49, -13.72, -23.87, -25.41, -24.86, -21.19, -18.15, 0.000, 0.000, 0.000, 03:57:17.592
121, -20.61, -26.67, -18.44, -22.11, -24.97, -14.89, -16.85, -22.13, -18.86, -23.49, -13.72, -23.87, -25.41, -24.86, -21.19, -18.15, 0.000, 0.000, 0.000, 03:57:17.594
122, -20.61, -26.67, -18.44, -22.11, -24.97, -14.89, -16.85, -22.13, -19.04, -23.38, -13.86, -23.96, -25.35, -24.94, -21.08, -18.15, 0.000, 0.000, 0.000, 03:57:17.599
123, -20.68, -26.60, -18.48, -21.97, -24.81, -14.93, -16.67, -21.84, -19.04, -23.38, -13.86, -23.96, -25.35, -24.94, -21.08, -18.15, 0.000, 0.000, 0.000, 03:57:17.603
124, -20.68, -26.60, -18.48, -21.97, -24.81, -14.93, -16.67, -21.84, -18.91, -23.36, -13.70, -23.83, -25.59, -24.83, -21.14, -18.40, 0.000, 0.000, 0.000, 03:57:17.606
125, -20.63, -26.46, -18.44, -22.15, -24.83, -15.02, -16.54, -21.97, -18.91, -23.36, -13.70, -23.83, -25.59, -24.83, -21.14, -18.40, 0.008, 0.934, 0.284, 03:57:17.612
126, -20.63, -26.46, -18.44, -22.15, -24.83, -15.02, -16.54, -21.97, -18.93, -23.42, -13.72, -24.05, -25.50, -24.83, -21.14, -18.17, 0.000, 0.000, 0.000, 03:57:17.616
127, -20.79, -26.58, -18.37, -22.20, -24.99, -14.93, -16.76, -22.22, -18.93, -23.42, -13.72, -24.05, -25.50, -24.83, -21.14, -18.17, 0.000, 0.000, 0.000, 03:57:17.620
128, -20.79, -26.58, -18.37, -22.20, -24.99, -14.93, -16.76, -22.22, -18.80, -23.56, -13.86, -24.05, -25.37, -24.79, -20.99, -17.99, 0.000, 0.000, 0.000, 03:57:17.623
129, -20.83, -26.46, -18.42, -21.95, -25.15, -15.13, -16.63, -22.22, -18.80, -23.56, -13.86, -24.05, -25.37, -24.79, -20.99, -17.99, 0.000, 0.000, 0.000, 03:57:17.626
130, -20.83, -26.46, -18.42, -21.95, -25.15, -15.13, -16.63, -22.22, -18.93, -23.67, -13.77, -23.96, -25.21, -24.92, -21.28, -17.97, 0.000, 0.000, 0.000, 03:57:17.631
131, -20.79, -26.82, -18.35, -22.06, -25.10, -14.86, -16.52, -22.22, -18.93, -23.67, -13.77, -23.96, -25.21, -24.92, -21.28, -17.97, 0.000, 0.000, 0.000, 03:57:17.635
132, -20.79, -26.82, -18.35, -22.06, -25.10, -14.86, -16.52, -22.22, -18.93, -23.58, -13.79, -23.92, -25.55, -25.03, -21.06, -18.15, 0.000, 0.000, 0.000, 03:57:17.640
133, -20.74, -26.78, -18.53, -22.24, -24.70, -14.95, -16.65, -22.22, -18.93, -23.58, -13.79, -23.92, -25.55, -25.03, -21.06, -18.15, 0.000, 0.000, 0.000, 03:57:17.643
134, -20.74, -26.78, -18.53, -22.24, -24.70, -14.95, -16.65, -22.22, -18.69, -23.40, -14.01, -23.96, -25.41, -24.86, -21.12, -18.26, 0.012, 0.934, 0.282, 03:57:17.648
135, -20.68, -26.73, -18.73, -22.26, -24.77, -14.77, -16.92, -21.86, -18.69, -23.40, -14.01, -23.96, -25.41, -24.86, -21.12, -18.26, 0.000, 0.000, 0.000, 03:57:17.650
136, -20.68, -26.73, -18.73, -22.26, -24.77, -14.77, -16.92, -21.86, -19.02, -23.22, -13.90, -23.94, -25.15, -24.90, -21.06, -18.31, 0.000, 0.000, 0.000, 03:57:17.655
137, -20.56, -26.40, -18.42, -22.17, -25.03, -14.86, -16.90, -22.13, -19.02, -23.22, -13.90, -23.94, -25.15, -24.90, -21.06, -18.31, 0.000, 0.000, 0.000, 03:57:17.658
138, -20.56, -26.40, -18.42, -22.17, -25.03, -14.86, -16.90, -22.13, -18.84, -23.36, -13.93, -24.03, -25.21, -24.94, -21.14, -17.77, 0.000, 0.000, 0.000, 03:57:17.663
139, -20.83, -26.53, -18.31, -22.06, -25.12, -14.95, -16.67, -21.97, -18.84, -23.36, -13.93, -24.03, -25.21, -24.94, -21.14, -17.77, 0.000, 0.000, 0.000, 03:57:17.668
140, -20.83, -26.53, -18.31, -22.06, -25.12, -14.95, -16.67, -21.97, -18.89, -23.34, -14.08, -24.01, -25.37, -24.83, -21.17, -18.15, 0.000, 0.000, 0.000, 03:57:17.671
141, -20.74, -26.46, -18.48, -22.04, -24.90, -15.07, -16.74, -21.99, -18.89, -23.34, -14.08, -24.01, -25.37, -24.83, -21.17, -18.15, 0.000, 0.000, 0.000, 03:57:17.675
142, -20.74, -26.46, -18.48, -22.04, -24.90, -15.07, -16.74, -21.99, -18.91, -23.47, -13.90, -24.07, -25.32, -24.88, -21.26, -17.97, 0.000, 0.000, 0.000, 03:57:17.678
143, -20.97, -26.76, -18.51, -21.84, -24.99, -15.00, -16.58, -21.70, -18.91, -23.47, -13.90, -24.07, -25.32, -24.88, -21.26, -17.97, 0.000, 0.000, 0.000, 03:57:17.683
144, -20.97, -26.76, -18.51, -21.84, -24.99, -15.00, -16.58, -21.70, -18.73, -23.49, -13.93, -24.14, -25.35, -24.86, -21.23, -17.93, 0.012, 0.936, 0.286, 03:57:17.687
145, -20.70, -26.71, -18.46, -22.28, -25.06, -14.95, -16.41, -22.06, -18.73, -23.49, -13.93, -24.14, -25.35, -24.86, -21.23, -17.93, 0.000, 0.000, 0.000, 03:57:17.690
146, -20.70, -26.71, -18.46, -22.28, -25.06, -14.95, -16.41, -22.06, -18.75, -23.45, -13.93, -23.92, -25.28, -24.81, -21.19, -18.17, 0.000, 0.000, 0.000, 03:57:17.695
147, -20.65, -26.76, -18.62, -22.22, -25.08, -14.89, -16.63, -22.08, -18.75, -23.45, -13.93, -23.92, -25.28, -24.81, -21.19, -18.17, 0.000, 0.000, 0.000, 03:57:17.699
148, -20.65, -26.76, -18.62, -22.22, -25.08, -14.89, -16.63, -22.08, -18.78, -23.51, -13.99, -23.92, -25.35, -24.74, -21.12, -18.08, 0.000, 0.000, 0.000, 03:57:17.703
149, -20.63, -26.76, -18.48, -22.06, -25.03, -15.00, -16.74, -22.02, -18.78, -23.51, -13.99, -23.92, -25.35, -24.74, -21.12, -18.08, 0.000, 0.000, 0.000, 03:57:17.707
150, -20.63, -26.76, -18.48, -22.06, -25.03, -15.00, -16.74, -22.02, -18.82, -23.51, -14.01, -23.85, -25.32, -24.63, -21.17, -18.15, 0.000, 0.000, 0.000, 03:57:17.711
151, -20.68, -26.58, -18.35, -22.13, -25.08, -15.09, -16.65, -22.20, -18.82, -23.51, -14.01, -23.85, -25.32, -24.63, -21.17, -18.15, 0.000, 0.000, 0.000, 03:57:17.715
152, -20.68, -26.58, -18.35, -22.13, -25.08, -15.09, -16.65, -22.20, -18.82, -23.47, -14.01, -23.92, -25.17, -24.97, -20.99, -18.10, 0.000, 0.000, 0.000, 03:57:17.719
153, -20.50, -26.49, -18.42, -22.26, -24.88, -14.93, -16.85, -22.08, -18.82, -23.47, -14.01, -23.92, -25.17, -24.97, -20.99, -18.10, 0.000, 0.000, 0.000, 03:57:17.723
154, -20.50, -26.49, -18.42, -22.26, -24.88, -14.93, -16.85, -22.08, -18.91, -23.54, -13.90, -24.01, -25.32, -24.68, -21.12, -18.17, 0.020, 0.936, 0.288, 03:57:17.728
155, -20.74, -26.55, -18.73, -21.95, -25.03, -14.89, -16.61, -22.33, -18.91, -23.54, -13.90, -24.01, -25.32, -24.68, -21.12, -18.17, 0.000, 0.000, 0.000, 03:57:17.731
156, -20.74, -26.55, -18.73, -21.95, -25.03, -14.89, -16.61, -22.33, -18.62, -23.42, -13.99, -23.80, -25.37, -24.83, -21.06, -17.97, 0.000, 0.000, 0.000, 03:57:17.735
157, -20.74, -26.53, -18.53, -22.02, -24.94, -15.15, -16.54, -22.11, -18.62, -23.42, -13.99, -23.80, -25.37, -24.83, -21.06, -17.97, 0.000, 0.000, 0.000, 03:57:17.739
158, -20.74, -26.53, -18.53, -22.02, -24.94, -15.15, -16.54, -22.11, -18.53, -23.51, -13.84, -23.94, -25.35, -24.83, -21.03, -18.08, 0.000, 0.000, 0.000, 03:57:17.743
159, -20.79, -26.67, -18.46, -22.28, -24.94, -14.98, -16.81, -22.08, -18.53, -23.51, -13.84, -23.94, -25.35, -24.83, -21.03, -18.08, 0.000, 0.000, 0.000, 03:57:17.746
160, -20.79, -26.67, -18.46, -22.28, -24.94, -14.98, -16.81, -22.08, -18.78, -23.51, -13.77, -23.83, -25.19, -24.63, -21.14, -17.99, 0.000, 0.000, 0.000, 03:57:17.753
161, -20.83, -26.78, -18.55, -22.04, -24.99, -14.98, -16.88, -22.28, -18.78, -23.51, -13.77, -23.83, -25.19, -24.63, -21.14, -17.99, 0.000, 0.000, 0.000, 03:57:17.756
162, -20.83, -26.78, -18.55, -22.04, -24.99, -14.98, -16.88, -22.28, -18.69, -23.38, -13.84, -23.89, -25.26, -24.83, -21.37, -17.99, 0.000, 0.000, 0.000, 03:57:17.759
163, -20.74, -26.69, -18.71, -22.15, -25.01, -14.77, -16.88, -22.33, -18.69, -23.38, -13.84, -23.89, -25.26, -24.83, -21.37, -17.99, 0.000, 0.000, 0.000, 03:57:17.763
164, -20.74, -26.69, -18.71, -22.15, -25.01, -14.77, -16.88, -22.33, -18.78, -23.56, -13.88, -23.89, -25.30, -24.81, -20.97, -18.28, 0.010, 0.952, 0.292, 03:57:17.766
165, -20.70, -26.55, -18.66, -21.99, -24.92, -14.64, -16.72, -22.06, -18.78, -23.56, -13.88, -23.89, -25.30, -24.81, -20.97, -18.28, 0.000, 0.000, 0.000, 03:57:17.771
166, -20.70, -26.55, -18.66, -21.99, -24.92, -14.64, -16.72, -22.06, -18.78, -23.74, -14.04, -24.12, -25.50, -24.97, -21.12, -17.84, 0.000, 0.000, 0.000, 03:57:17.774
167, -21.06, -26.55, -18.66, -22.17, -24.92, -14.93, -16.81, -22.13, -18.78, -23.74, -14.04, -24.12, -25.50, -24.97, -21.12, -17.84, 0.000, 0.000, 0.000, 03:57:17.779
168, -21.06, -26.55, -18.66, -22.17, -24.92, -14.93, -16.81, -22.13, -18.64, -23.47, -13.79, -24.16, -25.41, -24.72, -21.12, -18.19, 0.000, 0.000, 0.000, 03:57:17.783
169, -20.50, -26.58, -18.53, -21.99, -24.99, -14.93, -16.70, -22.31, -18.64, -23.47, -13.79, -24.16, -25.41, -24.72, -21.12, -18.19, 0.000, 0.000, 0.000, 03:57:17.785
170, -20.50, -26.58, -18.53, -21.99, -24.99, -14.93, -16.70, -22.31, -18.91, -23.58, -13.86, -24.03, -25.19, -24.83, -21.08, -17.99, 0.000, 0.000, 0.000, 03:57:17.790
171, -20.70, -26.62, -18.51, -22.02, -24.88, -14.75, -16.65, -22.22, -18.91, -23.58, -13.86, -24.03, -25.19, -24.83, -21.08, -17.99, 0.000, 0.000, 0.000, 03:57:17.795
172, -20.70, -26.62, -18.51, -22.02, -24.88, -14.75, -16.65, -22.22, -18.73, -23.54, -13.99, -24.03, -25.35, -24.72, -21.08, -18.17, 0.000, 0.000, 0.000, 03:57:17.800
173, -20.68, -26.73, -18.40, -21.88, -25.06, -14.73, -16.65, -22.06, -18.73, -23.54, -13.99, -24.03, -25.35, -24.72, -21.08, -18.17, 0.000, 0.000, 0.000, 03:57:17.805
174, -20.68, -26.73, -18.40, -21.88, -25.06, -14.73, -16.65, -22.06, -18.82, -23.58, -13.95, -23.92, -25.26, -24.56, -21.12, -18.08, 0.012, 0.938, 0.292, 03:57:17.807
175, -20.74, -26.44, -18.60, -22.33, -24.97, -14.84, -16.85, -22.11, -18.82, -23.58, -13.95, -23.92, -25.26, -24.56, -21.12, -18.08, 0.000, 0.000, 0.000, 03:57:17.811
176, -20.74, -26.44, -18.60, -22.33, -24.97, -14.84, -16.85, -22.11, -18.91, -23.65, -14.01, -23.98, -25.15, -24.72, -21.21, -18.04, 0.000, 0.000, 0.000, 03:57:17.816
177, -20.79, -26.55, -18.53, -22.11, -25.08, -15.04, -16.99, -22.35, -18.91, -23.65, -14.01, -23.98, -25.15, -24.72, -21.21, -18.04, 0.000, 0.000, 0.000, 03:57:17.819
178, -20.79, -26.55, -18.53, -22.11, -25.08, -15.04, -16.99, -22.35, -18.82, -23.56, -13.81, -24.01, -25.39, -24.74, -21.12, -18.06, 0.000, 0.000, 0.000, 03:57:17.823
179, -20.74, -26.62, -18.62, -22.20, -24.77, -15.02, -16.90, -22.11, -18.82, -23.56, -13.81, -24.01, -25.39, -24.74, -21.12, -18.06, 0.000, 0.000, 0.000, 03:57:17.828
180, -20.74, -26.62, -18.62, -22.20, -24.77, -15.02, -16.90, -22.11, -18.93, -23.45, -13.97, -24.14, -25.44, -24.70, -21.14, -18.04, 0.000, 0.000, 0.000, 03:57:17.832
181, -20.63, -26.58, -18.22, -22.31, -25.10, -14.93, -16.88, -21.88, -18.93, -23.45, -13.97, -24.14, -25.44, -24.70, -21.14, -18.04, 0.000, 0.000, 0.000, 03:57:17.835
182, -20.63, -26.58, -18.22, -22.31, -25.10, -14.93, -16.88, -21.88, -18.71, -23.38, -13.99, -24.14, -25.37, -24.61, -21.28, -18.19, 0.000, 0.000, 0.000, 03:57:17.839
183, -20.79, -26.60, -18.33, -22.24, -25.15, -14.95, -16.90, -22.17, -18.71, -23.38, -13.99, -24.14, -25.37, -24.61, -21.28, -18.19, 0.000, 0.000, 0.000, 03:57:17.842
184, -20.79, -26.60, -18.33, -22.24, -25.15, -14.95, -16.90, -22.17, -18.66, -23.36, -14.10, -24.01, -25.19, -24.74, -21.14, -17.95, 0.006, 0.938, 0.276, 03:57:17.846
185, -20.65, -26.33, -18.40, -21.99, -24.86, -14.93, -17.01, -22.04, -18.66, -23.36, -14.10, -24.01, -25.19, -24.74, -21.14, -17.95, 0.000, 0.000, 0.000, 03:57:17.851
186, -20.65, -26.33, -18.40, -21.99, -24.86, -14.93, -17.01, -22.04, -18.78, -23.40, -13.84, -24.03, -25.39, -24.77, -21.26, -18.22, 0.000, 0.000, 0.000, 03:57:17.855
187, -20.68, -26.29, -18.44, -21.99, -25.08, -14.84, -16.81, -21.99, -18.78, -23.40, -13.84, -24.03, -25.39, -24.77, -21.26, -18.22, 0.000, 0.000, 0.000, 03:57:17.859
188, -20.68, -26.29, -18.44, -21.99, -25.08, -14.84, -16.81, -21.99, -18.91, -23.40, -14.06, -24.05, -25.48, -24.70, -21.10, -17.86, 0.000, 0.000, 0.000, 03:57:17.864
189, -20.43, -26.69, -18.37, -21.84, -25.28, -14.71, -16.79, -22.35, -18.91, -23.40, -14.06, -24.05, -25.48, -24.70, -21.10, -17.86, 0.000, 0.000, 0.000, 03:57:17.867
190, -20.43, -26.69, -18.37, -21.84, -25.28, -14.71, -16.79, -22.35, -18.84, -23.29, -13.99, -24.03, -25.44, -24.65, -21.39, -18.02, 0.000, 0.000, 0.000, 03:57:17.871
191, -20.56, -26.67, -18.44, -22.11, -25.06, -14.93, -16.79, -22.08, -18.84, -23.29, -13.99, -24.03, -25.44, -24.65, -21.39, -18.02, 0.000, 0.000, 0.000, 03:57:17.875
192, -20.56, -26.67, -18.44, -22.11, -25.06, -14.93, -16.79, -22.08, -18.78, -23.54, -13.84, -24.01, -25.41, -24.83, -21.26, -17.99, 0.000, 0.000, 0.000, 03:57:17.879
193, -20.68, -26.73, -18.46, -22.15, -24.92, -15.04, -16.61, -22.06, -18.78, -23.54, -13.84, -24.01, -25.41, -24.83, -21.26, -17.99, 0.016, 0.938, 0.282, 03:57:17.883
194, -20.68, -26.73, -18.46, -22.15, -24.92, -15.04, -16.61, -22.06, -18.84, -23.42, -14.01, -23.76, -25.44, -24.77, -21.14, -17.88, 0.000, 0.000, 0.000, 03:57:17.887
195, -20.72, -26.58, -18.55, -22.02, -24.97, -15.11, -16.85, -22.04, -18.84, -23.42, -14.01, -23.76, -25.44, -24.77, -21.14, -17.88, 0.000, 0.000, 0.000, 03:57:17.890
196, -20.72, -26.58, -18.55, -22.02, -24.97, -15.11, -16.85, -22.04, -19.00, -23.18, -14.01, -23.96, -25.26, -24.59, -21.17, -18.10, 0.000, 0.000, 0.000, 03:57:17.894
197, -20.76, -26.38, -18.64, -22.17, -25.24, -14.93, -16.74, -22.13, -19.00, -23.18, -14.01, -23.96, -25.26, -24.59, -21.17, -18.10, 0.000, 0.000, 0.000, 03:57:17.898
198, -20.76, -26.38, -18.64, -22.17, -25.24, -14.93, -16.74, -22.13, -19.00, -23.29, -13.95, -24.16, -25.41, -24.70, -21.19, -18.13, 0.000, 0.000, 0.000, 03:57:17.904
199, -20.81, -26.51, -18.69, -21.93, -24.92, -14.89, -16.92, -22.15, -19.00, -23.29, -13.95, -24.16, -25.41, -24.70, -21.19, -18.13, 0.000, 0.000, 0.000, 03:57:17.907
200, -20.81, -26.51, -18.69, -21.93, -24.92, -14.89, -16.92, -22.15, -18.93, -23.34, -13.77, -24.05, -25.41, -24.54, -21.28, -18.06, 0.000, 0.000, 0.000, 03:57:17.911
201, -20.79, -26.55, -18.53, -22.08, -25.03, -14.95, -16.92, -21.99, -18.93, -23.34, -13.77, -24.05, -25.41, -24.54, -21.28, -18.06, 0.000, 0.000, 0.000, 03:57:17.915
202, -20.79, -26.55, -18.53, -22.08, -25.03, -14.95, -16.92, -21.99, -18.84, -23.36, -13.90, -24.03, -25.37, -24.72, -21.35, -18.19, 0.000, 0.000, 0.000, 03:57:17.918
203, -20.70, -26.49, -18.46, -21.99, -24.94, -15.11, -16.65, -22.17, -18.84, -23.36, -13.90, -24.03, -25.37, -24.72, -21.35, -18.19, 0.016, 0.938, 0.292, 03:57:17.922
204, -20.70, -26.49, -18.46, -21.99, -24.94, -15.11, -16.65, -22.17, -18.71, -23.36, -13.93, -23.76, -25.30, -24.81, -21.37, -18.13, 0.000, 0.000, 0.000, 03:57:17.926
205, -20.63, -26.58, -18.31, -21.97, -24.97, -14.98, -16.58, -22.08, -18.71, -23.36, -13.93, -23.76, -25.30, -24.81, -21.37, -18.13, 0.000, 0.000, 0.000, 03:57:17.930
206, -20.63, -26.58, -18.31, -21.97, -24.97, -14.98, -16.58, -22.08, -18.89, -23.54, -13.90, -23.85, -25.44, -24.72, -21.17, -18.10, 0.000, 0.000, 0.000, 03:57:17.934
207, -20.65, -26.42, -18.73, -22.08, -24.90, -14.93, -16.79, -21.95, -18.89, -23.54, -13.90, -23.85, -25.44, -24.72, -21.17, -18.10, 0.000, 0.000, 0.000, 03:57:17.940
208, -20.65, -26.42, -18.73, -22.08, -24.90, -14.93, -16.79, -21.95, -18.82, -23.45, -13.86, -23.94, -25.53, -24.83, -21.21, -18.22, 0.000, 0.000, 0.000, 03:57:17.943
209, -20.79, -26.62, -18.66, -21.99, -24.97, -14.84, -16.81, -22.13, -18.82, -23.45, -13.86, -23.94, -25.53, -24.83, -21.21, -18.22, 0.000, 0.000, 0.000, 03:57:17.947
210, -20.79, -26.62, -18.66, -21.99, -24.97, -14.84, -16.81, -22.13, -18.78, -23.56, -13.93, -23.89, -25.39, -24.79, -21.06, -18.17, 0.000, 0.000, 0.000, 03:57:17.950
211, -20.65, -26.33, -18.35, -22.08, -25.08, -14.77, -16.83, -22.22, -18.78, -23.56, -13.93, -23.89, -25.39, -24.79, -21.06, -18.17, 0.000, 0.000, 0.000, 03:57:17.954
212, -20.65, -26.33, -18.35, -22.08, -25.08, -14.77, -16.83, -22.22, -18.93, -23.54, -13.93, -23.96, -25.24, -24.86, -21.10, -17.99, 0.000, 0.000, 0.000, 03:57:17.960
213, -20.61, -26.49, -18.44, -22.08, -24.97, -14.93, -16.70, -22.15, -18.93, -23.54, -13.93, -23.96, -25.24, -24.86, -21.10, -17.99, 0.012, 0.942, 0.284, 03:57:17.963
214, -20.61, -26.49, -18.44, -22.08, -24.97, -14.93, -16.70, -22.15, -18.82, -23.67, -13.90, -23.92, -25.35, -24.81, -21.10, -18.06, 0.000, 0.000, 0.000, 03:57:17.967
215, -20.65, -26.82, -18.46, -22.04, -25.08, -14.93, -16.76, -22.22, -18.82, -23.67, -13.90, -23.92, -25.35, -24.81, -21.10, -18.06, 0.000, 0.000, 0.000, 03:57:17.970
216, -20.65, -26.82, -18.46, -22.04, -25.08, -14.93, -16.76, -22.22, -18.78, -23.38, -13.68, -23.80, -25.41, -24.79, -21.14, -18.19, 0.000, 0.000, 0.000, 03:57:17.974
217, -20.61, -26.42, -18.57, -21.90, -24.99, -14.84, -16.70, -22.31, -18.78, -23.38, -13.68, -23.80, -25.41, -24.79, -21.14, -18.19, 0.000, 0.000, 0.000, 03:57:17.979
218, -20.61, -26.42, -18.57, -21.90, -24.99, -14.84, -16.70, -22.31, -18.98, -23.25, -14.01, -23.96, -25.24, -24.90, -21.21, -18.17, 0.000, 0.000, 0.000, 03:57:17.982
219, -20.59, -26.76, -18.55, -22.24, -24.94, -14.93, -16.76, -22.51, -18.98, -23.25, -14.01, -23.96, -25.24, -24.90, -21.21, -18.17, 0.000, 0.000, 0.000, 03:57:17.987
220, -20.59, -26.76, -18.55, -22.24, -24.94, -14.93, -16.76, -22.51, -18.95, -23.29, -13.99, -23.94, -25.32, -24.90, -21.28, -18.22, 0.000, 0.000, 0.000, 03:57:17.990
221, -20.63, -26.82, -18.57, -22.40, -25.10, -14.80, -16.83, -21.95, -18.95, -23.29, -13.99, -23.94, -25.32, -24.90, -21.28, -18.22, 0.000, 0.000, 0.000, 03:57:17.995
222, -20.63, -26.82, -18.57, -22.40, -25.10, -14.80, -16.83, -21.95, -18.89, -23.27, -13.95, -23.94, -25.32, -24.68, -21.12, -18.17, 0.000, 0.000, 0.000, 03:57:17.999
223, -20.72, -26.62, -18.55, -22.31, -25.03, -14.98, -16.61, -22.13, -18.89, -23.27, -13.95, -23.94, -25.32, -24.68, -21.12, -18.17, 0.008, 0.946, 0.278, 03:57:18.002
224, -20.72, -26.62, -18.55, -22.31, -25.03, -14.98, -16.61, -22.13, -18.84, -23.40, -13.90, -24.01, -25.37, -24.88, -21.19, -17.97, 0.000, 0.000, 0.000, 03:57:18.006
225, -20.74, -26.64, -18.40, -22.35, -25.01, -14.80, -16.50, -22.17, -18.84, -23.40, -13.90, -24.01, -25.37, -24.88, -21.19, -17.97, 0.000, 0.000, 0.000, 03:57:18.010
226, -20.74, -26.64, -18.40, -22.35, -25.01, -14.80, -16.50, -22.17, -18.86, -23.65, -13.88, -23.94, -25.28, -24.81, -21.10, -18.02, 0.000, 0.000, 0.000, 03:57:18.014
227, -20.76, -26.69, -18.42, -21.86, -24.97, -14.91, -16.70, -22.24, -18.86, -23.65, -13.88, -23.94, -25.28, -24.81, -21.10, -18.02, 0.000, 0.000, 0.000, 03:57:18.019
228, -20.76, -26.69, -18.42, -21.86, -24.97, -14.91, -16.70, -22.24, -18.91, -23.45, -14.06, -23.92, -25.12, -24.81, -21.21, -17.90, 0.000, 0.000, 0.000, 03:57:18.023
229, -20.74, -26.49, -18.51, -21.99, -25.03, -14.91, -16.61, -22.15, -18.91, -23.45, -14.06, -23.92, -25.12, -24.81, -21.21, -17.90, 0.000, 0.000, 0.000, 03:57:18.026
230, -20.74, -26.49, -18.51, -21.99, -25.03, -14.91, -16.61, -22.15, -18.84, -23.60, -13.79, -24.12, -25.35, -24.90, -21.14, -18.19, 0.000, 0.000, 0.000, 03:57:18.029
231, -20.81, -26.46, -18.64, -22.20, -25.10, -15.00, -16.85, -21.88, -18.84, -23.60, -13.79, -24.12, -25.35, -24.90, -21.14, -18.19, 0.000, 0.000, 0.000, 03:57:18.034
232, -20.81, -26.46, -18.64, -22.20, -25.10, -15.00, -16.85, -21.88, -18.75, -23.45, -13.77, -23.76, -25.32, -24.65, -21.17, -18.22, 0.000, 0.000, 0.000, 03:57:18.039
233, -20.74, -26.44, -18.66, -21.99, -25.12, -14.98, -16.61, -22.06, -18.75, -23.45, -13.77, -23.76, -25.32, -24.65, -21.17, -18.22, 0.020, 0.944, 0.290, 03:57:18.044
234, -20.74, -26.44, -18.66, -21.99, -25.12, -14.98, -16.61, -22.06, -18.73, -23.63, -14.04, -23.98, -25.39, -24.59, -21.32, -17.99, 0.000, 0.000, 0.000, 03:57:18.047
235, -20.76, -26.40, -18.44, -21.82, -24.94, -14.80, -16.67, -22.28, -18.73, -23.63, -14.04, -23.98, -25.39, -24.59, -21.32, -17.99, 0.000, 0.000, 0.000, 03:57:18.050
236, -20.76, -26.40, -18.44, -21.82, -24.94, -14.80, -16.67, -22.28, -18.93, -23.42, -13.97, -23.96, -25.44, -24.74, -21.17, -18.06, 0.000, 0.000, 0.000, 03:57:18.054
237, -20.61, -26.60, -18.62, -22.22, -24.86, -14.80, -16.90, -22.08, -18.93, -23.42, -13.97, -23.96, -25.44, -24.74, -21.17, -18.06, 0.000, 0.000, 0.000, 03:57:18.058
238, -20.61, -26.60, -18.62, -22.22, -24.86, -14.80, -16.90, -22.08, -18.75, -23.42, -13.66, -24.12, -25.26, -24.68, -21.28, -18.17, 0.000, 0.000, 0.000, 03:57:18.062
239, -20.74, -26.93, -18.42, -22.17, -25.10, -14.93, -16.79, -22.20, -18.75, -23.42, -13.66, -24.12, -25.26, -24.68, -21.28, -18.17, 0.000, 0.000, 0.000, 03:57:18.066
240, -20.74, -26.93, -18.42, -22.17, -25.10, -14.93, -16.79, -22.20, -18.86, -23.42, -13.84, -23.98, -25.37, -24.70, -21.08, -18.24, 0.000, 0.000, 0.000, 03:57:18.071
241, -20.83, -26.53, -18.40, -22.11, -24.90, -14.86, -16.52, -22.20, -18.86, -23.42, -13.84, -23.98, -25.37, -24.70, -21.08, -18.24, 0.000, 0.000, 0.000, 03:57:18.074
242, -20.83, -26.53, -18.40, -22.11, -24.90, -14.86, -16.52, -22.20, -18.78, -23.45, -13.99, -24.03, -25.28, -24.74, -21.28, -18.10, 0.000, 0.000, 0.000, 03:57:18.078
243, -20.92, -26.64, -18.46, -22.04, -25.03, -14.91, -16.76, -22.04, -18.78, -23.45, -13.99, -24.03, -25.28, -24.74, -21.28, -18.10, 0.010, 0.950, 0.304, 03:57:18.082
244, -20.92, -26.64, -18.46, -22.04, -25.03, -14.91, -16.76, -22.04, -19.00, -23.58, -13.86, -24.12, -25.37, -24.61, -21.23, -17.90, 0.000, 0.000, 0.000, 03:57:18.085
245, -20.68, -26.82, -18.53, -22.06, -25.01, -14.71, -16.65, -22.22, -19.00, -23.58, -13.86, -24.12, -25.37, -24.61, -21.23, -17.90, 0.000, 0.000, 0.000, 03:57:18.090
246, -20.68, -26.82, -18.53, -22.06, -25.01, -14.71, -16.65, -22.22, -18.89, -23.67, -13.70, -24.05, -25.21, -24.86, -21.28, -17.86, 0.000, 0.000, 0.000, 03:57:18.094
247, -20.81, -26.60, -18.48, -22.28, -25.10, -15.02, -16.67, -22.20, -18.89, -23.67, -13.70, -24.05, -25.21, -24.86, -21.28, -17.86, 0.000, 0.000, 0.000, 03:57:18.098
248, -20.81, -26.60, -18.48, -22.28, -25.10, -15.02, -16.67, -22.20, -18.95, -23.40, -13.86, -23.89, -25.26, -24.63, -21.19, -18.10, 0.000, 0.000, 0.000, 03:57:18.103
249, -20.88, -26.76, -18.75, -22.17, -24.81, -14.86, -16.58, -22.15, -18.95, -23.40, -13.86, -23.89, -25.26, -24.63, -21.19, -18.10, 0.000, 0.000, 0.000, 03:57:18.105
250, -20.88, -26.76, -18.75, -22.17, -24.81, -14.86, -16.58, -22.15, -19.20, -23.36, -13.97, -23.89, -25.19, -24.77, -21.21, -18.04, 0.000, 0.000, 0.000, 03:57:18.110
251, -20.79, -26.80, -18.51, -22.11, -25.17, -15.07, -16.63, -22.24, -19.20, -23.36, -13.97, -23.89, -25.19, -24.77, -21.21, -18.04, 0.000, 0.000, 0.000, 03:57:18.113
252, -20.79, -26.80, -18.51, -22.11, -25.17, -15.07, -16.63, -22.24, -18.95, -23.65, -14.13, -23.76, -25.35, -24.86, -21.08, -17.99, 0.000, 0.000, 0.000, 03:57:18.118
253, -20.54, -26.35, -18.60, -22.08, -24.97, -14.91, -16.76, -22.02, -18.95, -23.65, -14.13, -23.76, -25.35, -24.86, -21.08, -17.99, 0.012, 0.944, 0.292, 03:57:18.122
254, -20.54, -26.35, -18.60, -22.08, -24.97, -14.91, -16.76, -22.02, -18.93, -23.54, -13.90, -24.12, -25.37, -24.86, -21.10, -17.95, 0.000, 0.000, 0.000, 03:57:18.126
255, -20.68, -26.71, -18.62, -22.33, -24.94, -14.89, -16.92, -22.22, -18.93, -23.54, -13.90, -24.12, -25.37, -24.86, -21.10, -17.95, 0.000, 0.000, 0.000, 03:57:18.130
0, -20.68, -26.71, -18.62, -22.33, -24.94, -14.89, -16.92, -22.22, -18.98, -23.49, -13.99, -24.03, -25.35, -24.79, -21.12, -18.08, 0.000, 0.000, 0.000, 03:57:18.134
1, -20.52, -26.76, -18.53, -22.26, -25.32, -14.91, -16.76, -22.04, -18.98, -23.49, -13.99, -24.03, -25.35, -24.79, -21.12, -18.08, 0.000, 0.000, 0.000, 03:57:18.139
2, -20.52, -26.76, -18.53, -22.26, -25.32, -14.91, -16.76, -22.04, -18.82, -23.40, -14.04, -23.74, -25.50, -24.70, -21.32, -17.88, 0.000, 0.000, 0.000, 03:57:18.141
3, -20.65, -26.71, -18.53, -22.06, -24.99, -14.89, -16.58, -22.04, -18.82, -23.40, -14.04, -23.74, -25.50, -24.70, -21.32, -17.88, 0.000, 0.000, 0.000, 03:57:18.146
4, -20.65, -26.71, -18.53, -22.06, -24.99, -14.89, -16.58, -22.04, -18.80, -23.58, -13.88, -23.94, -25.24, -24.88, -21.12, -18.04, 0.000, 0.000, 0.000, 03:57:18.150
5, -20.59, -26.51, -18.48, -22.02, -25.03, -15.00, -16.72, -21.99, -18.80, -23.58, -13.88, -23.94, -25.24, -24.88, -21.12, -18.04, 0.000, 0.000, 0.000, 03:57:18.154
6, -20.59, -26.51, -18.48, -22.02, -25.03, -15.00, -16.72, -21.99, -18.98, -23.47, -13.93, -23.92, -25.48, -24.79, -21.41, -17.81, 0.008, 0.948, 0.294, 03:57:18.159
7, -20.59, -26.73, -18.78, -22.08, -25.01, -14.89, -16.81, -22.20, -18.98, -23.47, -13.93, -23.92, -25.48, -24.79, -21.41, -17.81, 0.000, 0.000, 0.000, 03:57:18.161
8, -20.59, -26.73, -18.78, -22.08, -25.01, -14.89, -16.81, -22.20, -18.95, -23.45, -13.81, -24.05, -25.37, -24.81, -21.10, -18.06, 0.000, 0.000, 0.000, 03:57:18.166
9, -20.72, -26.67, -18.40, -21.97, -24.97, -14.98, -16.65, -22.06, -18.95, -23.45, -13.81, -24.05, -25.37, -24.81, -21.10, -18.06, 0.000, 0.000, 0.000, 03:57:18.170
10, -20.72, -26.67, -18.40, -21.97, -24.97, -14.98, -16.65, -22.06, -18.89, -23.47, -13.93, -23.98, -25.37, -24.72, -21.21, -17.86, 0.000, 0.000, 0.000, 03:57:18.174
11, -20.92, -26.69, -18.42, -21.95, -24.92, -15.04, -16.83, -21.99, -18.89, -23.47, -13.93, -23.98, -25.37, -24.72, -21.21, -17.86, 0.000, 0.000, 0.000, 03:57:18.179
12, -20.92, -26.69, -18.42, -21.95, -24.92, -15.04, -16.83, -21.99, -18.78, -23.36, -13.84, -23.80, -25.32, -24.90, -21.26, -18.17, 0.000, 0.000, 0.000, 03:57:18.182
13, -20.92, -26.53, -18.69, -22.20, -25.01, -15.00, -16.88, -22.26, -18.78, -23.36, -13.84, -23.80, -25.32, -24.90, -21.26, -18.17, 0.000, 0.000, 0.000, 03:57:18.186
14, -20.92, -26.53, -18.69, -22.20, -25.01, -15.00, -16.88, -22.26, -18.73, -23.45, -13.79, -23.87, -25.39, -24.81, -21.01, -17.95, 0.000, 0.000, 0.000, 03:57:18.189
15, -20.79, -26.62, -18.44, -21.93, -25.01, -14.75, -16.63, -22.13, -18.73, -23.45, -13.79, -23.87, -25.39, -24.81, -21.01, -17.95, 0.000, 0.000, 0.000, 03:57:18.193
16, -20.79, -26.62, -18.44, -21.93, -25.01, -14.75, -16.63, -22.13, -18.91, -23.49, -13.88, -23.69, -25.15, -24.79, -21.30, -18.19, 0.014, 0.948, 0.294, 03:57:18.198
17, -20.63, -26.73, -18.62, -21.93, -24.94, -14.95, -16.58, -22.15, -18.91, -23.49, -13.88, -23.69, -25.15, -24.79, -21.30, -18.19, 0.000, 0.000, 0.000, 03:57:18.201
18, -20.63, -26.73, -18.62, -21.93, -24.94, -14.95, -16.58, -22.15, -18.80, -23.51, -13.95, -23.89, -25.41, -24.59, -21.12, -18.24, 0.000, 0.000, 0.000, 03:57:18.206
19, -20.68, -26.55, -18.35, -21.99, -25.01, -14.93, -16.65, -22.24, -18.80, -23.51, -13.95, -23.89, -25.41, -24.59, -21.12, -18.24, 0.000, 0.000, 0.000, 03:57:18.210
20, -20.68, -26.55, -18.35, -21.99, -25.01, -14.93, -16.65, -22.24, -18.93, -23.72, -13.88, -23.78, -25.46, -24.81, -20.90, -18.04, 0.000, 0.000, 0.000, 03:57:18.214
21, -20.74, -26.67, -18.40, -21.95, -24.94, -14.84, -16.81, -22.06, -18.93, -23.72, -13.88, -23.78, -25.46, -24.81, -20.90, -18.04, 0.000, 0.000, 0.000, 03:57:18.217
22, -20.74, -26.67, -18.40, -21.95, -24.94, -14.84, -16.81, -22.06, -18.75, -23.40, -13.79, -23.78, -25.26, -24.77, -20.99, -18.19, 0.000, 0.000, 0.000, 03:57:18.222
23, -20.61, -26.53, -18.51, -21.99, -24.77, -15.02, -16.72, -22.02, -18.75, -23.40, -13.79, -23.78, -25.26, -24.77, -20.99, -18.19, 0.000, 0.000, 0.000, 03:57:18.225
24, -20.61, -26.53, -18.51, -21.99, -24.77, -15.02, -16.72, -22.02, -18.60, -23.34, -13.95, -23.83, -25.44, -24.79, -21.12, -17.84, 0.000, 0.000, 0.000, 03:57:18.230
25, -20.68, -26.53, -18.57, -22.28, -25.03, -14.84, -16.81, -22.26, -18.60, -23.34, -13.95, -23.83, -25.44, -24.79, -21.12, -17.84, 0.000, 0.000, 0.000, 03:57:18.235
26, -20.68, -26.53, -18.57, -22.28, -25.03, -14.84, -16.81, -22.26, -18.86, -23.45, -13.88, -23.96, -25.55, -24.83, -21.17, -18.02, 0.012, 0.942, 0.294, 03:57:18.238
27, -20.63, -26.46, -18.60, -22.02, -25.06, -14.71, -16.79, -22.22, -18.86, -23.45, -13.88, -23.96, -25.55, -24.83, -21.17, -18.02, 0.000, 0.000, 0.000, 03:57:18.242
28, -20.63, -26.46, -18.60, -22.02, -25.06, -14.71, -16.79, -22.22, -19.07, -23.42, -13.88, -23.83, -25.21, -24.61, -21.46, -18.13, 0.000, 0.000, 0.000, 03:57:18.246
29, -20.85, -26.78, -18.60, -21.93, -24.72, -14.77, -16.67, -22.13, -19.07, -23.42, -13.88, -23.83, -25.21, -24.61, -21.46, -18.13, 0.000, 0.000, 0.000, 03:57:18.249
30, -20.85, -26.78, -18.60, -21.93, -24.72, -14.77, -16.67, -22.13, -18.75, -23.42, -13.95, -24.07, -25.48, -24.83, -21.23, -18.08, 0.000, 0.000, 0.000, 03:57:18.254
31, -20.70, -26.53, -18.40, -21.99, -24.90, -15.04, -16.76, -22.11, -18.75, -23.42, -13.95, -24.07, -25.48, -24.83, -21.23, -18.08, 0.000, 0.000, 0.000, 03:57:18.257
32, -20.70, -26.53, -18.40, -21.99, -24.90, -15.04, -16.76, -22.11, -18.75, -23.27, -13.81, -24.03, -25.46, -24.94, -21.32, -18.04, 0.000, 0.000, 0.000, 03:57:18.262
33, -20.92, -26.33, -18.37, -21.95, -24.90, -14.86, -16.67, -22.08, -18.75, -23.27, -13.81, -24.03, -25.46, -24.94, -21.32, -18.04, 0.000, 0.000, 0.000, 03:57:18.267
34, -20.92, -26.33, -18.37, -21.95, -24.90, -14.86, -16.67, -22.08, -18.91, -23.45, -13.77, -23.96, -25.24, -24.79, -21.30, -17.90, 0.000, 0.000, 0.000, 03:57:18.269
35, -20.85, -26.53, -18.57, -22.24, -24.99, -15.04, -16.72, -22.11, -18.91, -23.45, -13.77, -23.96, -25.24, -24.79, -21.30, -17.90, 0.000, 0.000, 0.000, 03:57:18.273
36, -20.85, -26.53, -18.57, -22.24, -24.99, -15.04, -16.72, -22.11, -18.86, -23.40, -13.95, -24.01, -25.44, -24.94, -21.26, -17.99, 0.016, 0.942, 0.302, 03:57:18.278
37, -20.76, -26.76, -18.40, -22.04, -25.08, -14.84, -16.56, -22.17, -18.86, -23.40, -13.95, -24.01, -25.44, -24.94, -21.26, -17.99, 0.000, 0.000, 0.000, 03:57:18.282
38, -20.76, -26.76, -18.40, -22.04, -25.08, -14.84, -16.56, -22.17, -18.82, -23.47, -13.93, -24.10, -25.46, -24.77, -21.21, -18.10, 0.000, 0.000, 0.000, 03:57:18.285
39, -20.72, -26.78, -18.60, -21.82, -25.10, -15.02, -16.79, -21.79, -18.82, -23.47, -13.93, -24.10, -25.46, -24.77, -21.21, -18.10, 0.000, 0.000, 0.000, 03:57:18.291
40, -20.72, -26.78, -18.60, -21.82, -25.10, -15.02, -16.79, -21.79, -18.93, -23.51, -14.06, -23.98, -25.50, -24.81, -21.10, -18.15, 0.000, 0.000, 0.000, 03:57:18.293
41, -20.76, -26.60, -18.42, -22.17, -24.90, -14.91, -16.70, -22.11, -18.93, -23.51, -14.06, -23.98, -25.50, -24.81, -21.10, -18.15, 0.000, 0.000, 0.000, 03:57:18.298
42, -20.76, -26.60, -18.42, -22.17, -24.90, -14.91, -16.70, -22.11, -18.91, -23.31, -13.86, -24.05, -25.37, -24.86, -21.28, -18.15, 0.000, 0.000, 0.000, 03:57:18.302
43, -20.65, -26.87, -18.69, -22.02, -24.97, -14.73, -16.58, -22.04, -18.91, -23.31, -13.86, -24.05, -25.37, -24.86, -21.28, -18.15, 0.000, 0.000, 0.000, 03:57:18.306
44, -20.65, -26.87, -18.69, -22.02, -24.97, -14.73, -16.58, -22.04, -18.89, -23.42, -13.63, -24.14, -25.28, -25.01, -21.21, -18.06, 0.000, 0.000, 0.000, 03:57:18.309
45, -20.85, -26.67, -18.62, -22.08, -24.90, -14.82, -16.74, -22.20, -18.89, -23.42, -13.63, -24.14, -25.28, -25.01, -21.21, -18.06, 0.000, 0.000, 0.000, 03:57:18.314
46, -20.85, -26.67, -18.62, -22.08, -24.90, -14.82, -16.74, -22.20, -18.75, -23.45, -13.70, -24.05, -25.21, -24.68, -20.97, -18.04, 0.018, 0.952, 0.302, 03:57:18.319
47, -20.63, -26.62, -18.55, -22.08, -24.79, -14.86, -16.72, -22.04, -18.75, -23.45, -13.70, -24.05, -25.21, -24.68, -20.97, -18.04, 0.000, 0.000, 0.000, 03:57:18.322
48, -20.63, -26.62, -18.55, -22.08, -24.79, -14.86, -16.72, -22.04, -18.86, -23.69, -13.77, -24.05, -25.21, -24.79, -21.26, -18.02, 0.000, 0.000, 0.000, 03:57:18.325
49, -20.74, -26.62, -18.62, -21.90, -24.92, -14.95, -16.67, -22.17, -18.86, -23.69, -13.77, -24.05, -25.21, -24.79, -21.26, -18.02, 0.000, 0.000, 0.000, 03:57:18.329
50, -20.74, -26.62, -18.62, -21.90, -24.92, -14.95, -16.67, -22.17, -18.98, -23.49, -13.77, -23.89, -25.30, -24.39, -21.08, -17.99, 0.000, 0.000, 0.000, 03:57:18.334
51, -20.97, -26.64, -18.46, -22.26, -24.97, -14.93, -16.70, -21.99, -18.98, -23.49, -13.77, -23.89, -25.30, -24.39, -21.08, -17.99, 0.000, 0.000, 0.000, 03:57:18.338
52, -20.97, -26.64, -18.46, -22.26, -24.97, -14.93, -16.70, -21.99, -18.73, -23.40, -13.93, -24.01, -25.32, -24.68, -21.06, -18.08, 0.000, 0.000, 0.000, 03:57:18.341
53, -20.74, -26.69, -18.82, -22.22, -24.83, -15.00, -16.83, -22.02, -18.73, -23.40, -13.93, -24.01, -25.32, -24.68, -21.06, -18.08, 0.000, 0.000, 0.000, 03:57:18.347
54, -20.74, -26.69, -18.82, -22.22, -24.83, -15.00, -16.83, -22.02, -18.86, -23.25, -14.01, -23.89, -25.37, -24.94, -21.26, -18.06, 0.000, 0.000, 0.000, 03:57:18.350
55, -20.92, -26.51, -18.46, -22.35, -25.01, -15.04, -16.72, -22.06, -18.86, -23.25, -14.01, -23.89, -25.37, -24.94, -21.26, -18.06, 0.000, 0.000, 0.000, 03:57:18.353
56, -20.92, -26.51, -18.46, -22.35, -25.01, -15.04, -16.72, -22.06, -18.89, -23.34, -14.01, -24.10, -25.37, -24.77, -21.21, -18.02, 0.018, 0.946, 0.296, 03:57:18.358
57, -20.99, -26.49, -18.91, -22.13, -24.88, -15.00, -16.63, -22.04, -18.89, -23.34, -14.01, -24.10, -25.37, -24.77, -21.21, -18.02, 0.000, 0.000, 0.000, 03:57:18.361
58, -20.99, -26.49, -18.91, -22.13, -24.88, -15.00, -16.63, -22.04, -18.82, -23.34, -13.79, -24.10, -25.41, -24.92, -21.10, -18.10, 0.000, 0.000, 0.000, 03:57:18.366
59, -20.65, -26.69, -18.55, -21.97, -24.94, -15.00, -16.81, -22.02, -18.82, -23.34, -13.79, -24.10, -25.41, -24.92, -21.10, -18.10, 0.000, 0.000, 0.000, 03:57:18.370
60, -20.65, -26.69, -18.55, -21.97, -24.94, -15.00, -16.81, -22.02, -18.75, -23.49, -13.99, -24.07, -25.35, -24.99, -21.10, -18.06, 0.000, 0.000, 0.000, 03:57:18.373
61, -20.65, -26.64, -18.62, -22.26, -24.94, -14.93, -16.81, -22.13, -18.75, -23.49, -13.99, -24.07, -25.35, -24.99, -21.10, -18.06, 0.000, 0.000, 0.000, 03:57:18.377
62, -20.65, -26.64, -18.62, -22.26, -24.94, -14.93, -16.81, -22.13, -18.80, -23.40, -13.99, -23.96, -25.26, -24.92, -21.19, -18.02, 0.000, 0.000, 0.000, 03:57:18.380
63, -20.65, -26.69, -18.44, -22.26, -25.06, -14.93, -16.74, -22.13, -18.80, -23.40, -13.99, -23.96, -25.26, -24.92, -21.19, -18.02, 0.000, 0.000, 0.000, 03:57:18.385
64, -20.65, -26.69, -18.44, -22.26, -25.06, -14.93, -16.74, -22.13, -18.80, -23.40, -13.86, -24.12, -25.19, -24.77, -21.19, -18.15, 0.000, 0.000, 0.000, 03:57:18.390
65, -20.70, -26.69, -18.60, -21.95, -25.12, -15.04, -16.61, -22.06, -18.80, -23.40, -13.86, -24.12, -25.19, -24.77, -21.19, -18.15, 0.018, 0.930, 0.286, 03:57:18.393
66, -20.70, -26.69, -18.60, -21.95, -25.12, -15.04, -16.61, -22.06, -18.75, -23.31, -14.13, -23.96, -25.21, -24.79, -21.10, -18.06, 0.000, 0.000, 0.000, 03:57:18.398
67, -20.61, -26.58, -18.53, -22.08, -25.15, -14.89, -16.81, -21.97, -18.75, -23.31, -14.13, -23.96, -25.21, -24.79, -21.10, -18.06, 0.000, 0.000, 0.000, 03:57:18.400
68, -20.61, -26.58, -18.53, -22.08, -25.15, -14.89, -16.81, -21.97, -18.73, -23.54, -13.93, -23.94, -25.39, -24.94, -21.10, -18.19, 0.000, 0.000, 0.000, 03:57:18.405
69, -20.65, -26.44, -18.60, -22.17, -24.97, -14.80, -16.81, -22.06, -18.73, -23.54, -13.93, -23.94, -25.39, -24.94, -21.10, -18.19, 0.000, 0.000, 0.000, 03:57:18.409
70, -20.65, -26.44, -18.60, -22.17, -24.97, -14.80, -16.81, -22.06, -18.84, -23.42, -13.79, -23.78, -25.28, -24.81, -21.21, -18.17, 0.000, 0.000, 0.000, 03:57:18.413
71, -20.32, -26.76, -18.60, -22.15, -25.24, -14.98, -16.94, -22.11, -18.84, -23.42, -13.79, -23.78, -25.28, -24.81, -21.21, -18.17, 0.000, 0.000, 0.000, 03:57:18.418
72, -20.32, -26.76, -18.60, -22.15, -25.24, -14.98, -16.94, -22.11, -18.71, -23.56, -13.97, -23.78, -25.32, -24.83, -21.17, -18.15, 0.000, 0.000, 0.000, 03:57:18.421
73, -20.72, -26.64, -18.46, -22.11, -24.97, -14.93, -16.65, -22.17, -18.71, -23.56, -13.97, -23.78, -25.32, -24.83, -21.17, -18.15, 0.000, 0.000, 0.000, 03:57:18.426
74, -20.72, -26.64, -18.46, -22.11, -24.97, -14.93, -16.65, -22.17, -18.93, -23.40, -14.04, -23.92, -25.39, -24.77, -21.03, -17.99, 0.000, 0.000, 0.000, 03:57:18.429
75, -20.81, -26.60, -18.53, -22.15, -24.83, -14.93, -16.74, -22.15, -18.93, -23.40, -14.04, -23.92, -25.39, -24.77, -21.03, -17.99, 0.028, 0.944, 0.292, 03:57:18.433
76, -20.81, -26.60, -18.53, -22.15, -24.83, -14.93, -16.74, -22.15, -18.93, -23.58, -14.01, -24.16, -25.39, -24.81, -21.08, -18.04, 0.000, 0.000, 0.000, 03:57:18.437
77, -20.83, -26.42, -18.33, -21.97, -24.88, -14.91, -16.96, -22.28, -18.93, -23.58, -14.01, -24.16, -25.39, -24.81, -21.08, -18.04, 0.000, 0.000, 0.000, 03:57:18.441
78, -20.83, -26.42, -18.33, -21.97, -24.88, -14.91, -16.96, -22.28, -18.86, -23.56, -13.81, -23.83, -25.35, -24.88, -21.21, -18.24, 0.000, 0.000, 0.000, 03:57:18.445
79, -20.74, -26.69, -18.53, -22.04, -25.01, -14.86, -16.65, -22.06, -18.86, -23.56, -13.81, -23.83, -25.35, -24.88, -21.21, -18.24, 0.000, 0.000, 0.000, 03:57:18.450
80, -20.74, -26.69, -18.53, -22.04, -25.01, -14.86, -16.65, -22.06, -18.73, -23.67, -13.81, -24.03, -25.62, -24.97, -21.03, -17.97, 0.000, 0.000, 0.000, 03:57:18.452
81, -20.90, -26.46, -18.44, -22.26, -25.08, -15.20, -16.67, -22.22, -18.73, -23.67, -13.81, -24.03, -25.62, -24.97, -21.03, -17.97, 0.000, 0.000, 0.000, 03:57:18.457
82, -20.90, -26.46, -18.44, -22.26, -25.08, -15.20, -16.67, -22.22, -19.02, -23.56, -13.68, -23.94, -25.35, -24.81, -21.14, -18.10, 0.000, 0.000, 0.000, 03:57:18.461
83, -20.65, -26.58, -18.35, -22.31, -25.17, -14.86, -16.85, -22.22, -19.02, -23.56, -13.68, -23.94, -25.35, -24.81, -21.14, -18.10, 0.000, 0.000, 0.000, 03:57:18.465
84, -20.65, -26.58, -18.35, -22.31, -25.17, -14.86, -16.85, -22.22, -18.82, -23.56, -13.86, -23.89, -25.21, -24.79, -21.26, -18.06, 0.000, 0.000, 0.000, 03:57:18.469
85, -20.54, -26.53, -18.31, -22.22, -24.86, -15.11, -16.94, -22.11, -18.82, -23.56, -13.86, -23.89, -25.21, -24.79, -21.26, -18.06, 0.028, 0.944, 0.304, 03:57:18.474
86, -20.54, -26.53, -18.31, -22.22, -24.86, -15.11, -16.94, -22.11, -19.07, -23.67, -13.86, -23.94, -25.35, -24.68, -21.21, -18.19, 0.000, 0.000, 0.000, 03:57:18.478
87, -20.85, -26.40, -18.51, -22.06, -24.94, -15.09, -16.67, -22.24, -19.07, -23.67, -13.86, -23.94, -25.35, -24.68, -21.21, -18.19, 0.000, 0.000, 0.000, 03:57:18.480
88, -20.85, -26.40, -18.51, -22.06, -24.94, -15.09, -16.67, -22.24, -18.82, -23.54, -13.86, -23.92, -25.46, -24.77, -21.23, -18.22, 0.000, 0.000, 0.000, 03:57:18.485
89, -20.79, -26.49, -18.46, -22.17, -24.81, -15.09, -16.65, -22.24, -18.82, -23.54, -13.86, -23.92, -25.46, -24.77, -21.23, -18.22, 0.000, 0.000, 0.000, 03:57:18.489
90, -20.79, -26.49, -18.46, -22.17, -24.81, -15.09, -16.65, -22.24, -18.71, -23.45, -13.90, -23.96, -25.30, -24.81, -21.17, -18.04, 0.000, 0.000, 0.000, 03:57:18.493
91, -20.68, -26.33, -18.73, -22.11, -24.99, -14.84, -16.85, -22.13, -18.71, -23.45, -13.90, -23.96, -25.30, -24.81, -21.17, -18.04, 0.000, 0.000, 0.000, 03:57:18.497
92, -20.68, -26.33, -18.73, -22.11, -24.99, -14.84, -16.85, -22.13, -18.80, -23.56, -13.88, -23.98, -25.50, -24.86, -21.12, -18.19, 0.000, 0.000, 0.000, 03:57:18.501
93, -20.81, -26.44, -18.40, -21.99, -25.12, -14.98, -16.58, -22.08, -18.80, -23.56, -13.88, -23.98, -25.50, -24.86, -21.12, -18.19, 0.000, 0.000, 0.000, 03:57:18.506
94, -20.81, -26.44, -18.40, -21.99, -25.12, -14.98, -16.58, -22.08, -19.07, -23.49, -13.95, -23.96, -25.53, -24.83, -21.21, -17.97, 0.000, 0.000, 0.000, 03:57:18.509
95, -20.70, -26.49, -18.15, -21.97, -24.99, -15.04, -16.56, -21.99, -19.07, -23.49, -13.95, -23.96, -25.53, -24.83, -21.21, -17.97, 0.024, 0.938, 0.300, 03:57:18.513
96, -20.70, -26.49, -18.15, -21.97, -24.99, -15.04, -16.56, -21.99, -18.89, -23.38, -13.95, -23.94, -25.37, -24.99, -21.26, -17.88, 0.000, 0.000, 0.000, 03:57:18.517
97, -20.79, -26.62, -18.69, -21.93, -24.97, -15.00, -16.43, -22.08, -18.89, -23.38, -13.95, -23.94, -25.37, -24.99, -21.26, -17.88, 0.000, 0.000, 0.000, 03:57:18.521
98, -20.79, -26.62, -18.69, -21.93, -24.97, -15.00, -16.43, -22.08, -18.82, -23.60, -13.88, -23.76, -25.24, -24.92, -20.94, -18.04, 0.000, 0.000, 0.000, 03:57:18.525
99, -20.81, -26.64, -18.80, -22.20, -25.12, -14.80, -16.74, -22.28, -18.82, -23.60, -13.88, -23.76, -25.24, -24.92, -20.94, -18.04, 0.000, 0.000, 0.000, 03:57:18.529
100, -20.81, -26.64, -18.80, -22.20, -25.12, -14.80, -16.74, -22.28, -18.91, -23.60, -13.86, -23.94, -25.39, -24.74, -21.06, -17.93, 0.000, 0.000, 0.000, 03:57:18.535
101, -20.81, -26.62, -18.44, -22.17, -25.01, -15.02, -16.79, -21.97, -18.91, -23.60, -13.86, -23.94, -25.39, -24.74, -21.06, -17.93, 0.000, 0.000, 0.000, 03:57:18.539
102, -20.81, -26.62, -18.44, -22.17, -25.01, -15.02, -16.79, -21.97, -18.95, -23.42, -13.95, -23.92, -25.26, -24.52, -21.10, -17.90, 0.000, 0.000, 0.000, 03:57:18.542
103, -20.81, -26.51, -18.35, -22.11, -24.97, -14.93, -16.85, -21.90, -18.95, -23.42, -13.95, -23.92, -25.26, -24.52, -21.10, -17.90, 0.000, 0.000, 0.000, 03:57:18.545
104, -20.81, -26.51, -18.35, -22.11, -24.97, -14.93, -16.85, -21.90, -18.89, -23.36, -13.70, -24.21, -25.37, -24.81, -21.01, -17.95, 0.000, 0.000, 0.000, 03:57:18.549
105, -20.88, -26.53, -18.60, -22.04, -25.08, -15.00, -16.72, -22.20, -18.89, -23.36, -13.70, -24.21, -25.37, -24.81, -21.01, -17.95, 0.020, 0.938, 0.298, 03:57:18.553
106, -20.88, -26.53, -18.60, -22.04, -25.08, -15.00, -16.72, -22.20, -18.60, -23.51, -13.63, -23.96, -25.41, -25.10, -21.35, -18.19, 0.000, 0.000, 0.000, 03:57:18.557
107, -20.76, -26.71, -18.82, -21.90, -24.99, -14.86, -16.88, -22.11, -18.60, -23.51, -13.63, -23.96, -25.41, -25.10, -21.35, -18.19, 0.000, 0.000, 0.000, 03:57:18.562
108, -20.76, -26.71, -18.82, -21.90, -24.99, -14.86, -16.88, -22.11, -19.07, -23.34, -13.99, -24.01, -25.35, -24.79, -21.32, -17.99, 0.000, 0.000, 0.000, 03:57:18.564
109, -20.59, -26.60, -18.48, -21.97, -24.88, -15.09, -16.58, -22.06, -19.07, -23.34, -13.99, -24.01, -25.35, -24.79, -21.32, -17.99, 0.000, 0.000, 0.000, 03:57:18.569
110, -20.59, -26.60, -18.48, -21.97, -24.88, -15.09, -16.58, -22.06, -18.95, -23.31, -14.10, -24.01, -25.32, -24.83, -21.17, -18.08, 0.000, 0.000, 0.000, 03:57:18.573
111, -20.72, -26.51, -18.53, -22.15, -24.90, -14.75, -16.83, -22.24, -18.95, -23.31, -14.10, -24.01, -25.32, -24.83, -21.17, -18.08, 0.000, 0.000, 0.000, 03:57:18.577
112, -20.72, -26.51, -18.53, -22.15, -24.90, -14.75, -16.83, -22.24, -18.93, -23.29, -13.97, -23.96, -25.21, -24.90, -21.41, -18.04, 0.000, 0.000, 0.000, 03:57:18.581
113, -20.88, -26.55, -18.37, -22.17, -24.86, -14.75, -16.79, -22.33, -18.93, -23.29, -13.97, -23.96, -25.21, -24.90, -21.41, -18.04, 0.000, 0.000, 0.000, 03:57:18.586
114, -20.88, -26.55, -18.37, -22.17, -24.86, -14.75, -16.79, -22.33, -18.84, -23.56, -13.99, -23.94, -25.32, -24.90, -21.19, -18.13, 0.000, 0.000, 0.000, 03:57:18.589
115, -20.90, -26.64, -18.46, -22.11, -24.88, -14.91, -16.74, -22.20, -18.84, -23.56, -13.99, -23.94, -25.32, -24.90, -21.19, -18.13, 0.016, 0.948, 0.310, 03:57:18.592
116, -20.90, -26.64, -18.46, -22.11, -24.88, -14.91, -16.74, -22.20, -19.07, -23.54, -13.70, -24.03, -25.21, -24.74, -21.28, -17.95, 0.000, 0.000, 0.000, 03:57:18.597
117, -20.76, -26.51, -18.57, -22.04, -24.97, -15.02, -16.79, -22.20, -19.07, -23.54, -13.70, -24.03, -25.21, -24.74, -21.28, -17.95, 0.000, 0.000, 0.000, 03:57:18.601
118, -20.76, -26.51, -18.57, -22.04, -24.97, -15.02, -16.79, -22.20, -18.82, -23.74, -13.81, -23.96, -25.44, -25.01, -21.19, -18.02, 0.000, 0.000, 0.000, 03:57:18.605
119, -20.74, -26.53, -18.44, -22.15, -24.97, -14.86, -16.94, -21.95, -18.82, -23.74, -13.81, -23.96, -25.44, -25.01, -21.19, -18.02, 0.000, 0.000, 0.000, 03:57:18.609
120, -20.74, -26.53, -18.44, -22.15, -24.97, -14.86, -16.94, -21.95, -19.02, -23.69, -14.04, -23.87, -25.46, -24.65, -20.99, -18.06, 0.000, 0.000, 0.000, 03:57:18.614
121, -20.99, -26.49, -18.55, -21.99, -24.88, -14.66, -16.81, -21.95, -19.02, -23.69, -14.04, -23.87, -25.46, -24.65, -20.99, -18.06, 0.000, 0.000, 0.000, 03:57:18.617
122, -20.99, -26.49, -18.55, -21.99, -24.88, -14.66, -16.81, -21.95, -19.07, -23.45, -13.68, -24.05, -25.30, -24.94, -21.26, -18.06, 0.000, 0.000, 0.000, 03:57:18.620
123, -20.72, -26.73, -18.69, -21.93, -24.88, -15.07, -16.63, -21.84, -19.07, -23.45, -13.68, -24.05, -25.30, -24.94, -21.26, -18.06, 0.000, 0.000, 0.000, 03:57:18.624
124, -20.72, -26.73, -18.69, -21.93, -24.88, -15.07, -16.63, -21.84, -19.07, -23.47, -14.10, -23.67, -25.46, -24.86, -21.28, -18.04, 0.018, 0.942, 0.312, 03:57:18.630
125, -20.50, -26.67, -18.37, -22.13, -24.94, -14.95, -16.90, -22.15, -19.07, -23.47, -14.10, -23.67, -25.46, -24.86, -21.28, -18.04, 0.000, 0.000, 0.000, 03:57:18.633
126, -20.50, -26.67, -18.37, -22.13, -24.94, -14.95, -16.90, -22.15, -18.84, -23.36, -13.66, -24.14, -25.24, -24.70, -21.37, -1